timestamps,TP9,AF7,AF8,TP10,Right AUX
1642605324.325,19.043,39.551,-418.457,4.395,51.758
1642605324.329,40.527,39.062,-348.145,33.691,31.250
1642605324.333,18.066,32.227,-437.988,19.043,16.602
1642605324.337,5.371,32.715,-624.023,-11.719,-6.836
1642605324.341,16.602,38.086,-655.273,-10.254,-30.273
1642605324.345,24.414,41.992,-622.559,9.766,-47.852
1642605324.348,15.625,44.434,-700.195,16.113,-13.672
1642605324.352,2.930,44.922,-942.383,-1.465,-12.207
1642605324.356,13.184,45.898,-820.312,-8.301,-36.133
1642605324.360,30.762,45.898,-514.160,13.672,-36.621
1642605324.364,27.832,44.922,-585.938,25.879,-56.152
1642605324.368,13.184,39.551,-614.258,12.695,-11.719
1642605324.371,-0.977,38.086,-570.801,5.859,81.055
1642605324.375,3.418,34.180,-593.262,10.742,52.734
1642605324.379,13.184,34.668,-649.902,24.414,38.574
1642605324.383,14.648,40.527,-610.840,22.949,30.762
1642605324.385,7.324,46.387,-558.105,12.207,16.113
1642605324.389,14.648,44.434,-602.051,12.207,33.691
1642605324.393,26.855,35.645,-885.742,31.738,12.695
1642605324.397,23.926,38.086,-892.578,28.320,7.812
1642605324.401,11.230,43.945,-547.363,11.230,52.246
1642605324.405,13.672,40.527,-714.844,11.719,42.969
1642605324.408,22.461,35.645,-958.496,19.043,20.020
1642605324.412,23.926,37.109,-710.449,30.273,42.480
1642605324.416,8.301,37.109,-529.785,12.207,57.617
1642605324.420,-1.953,36.621,-762.207,-2.441,13.672
1642605324.424,18.066,41.504,-825.684,18.555,30.273
1642605324.428,29.297,45.898,-591.797,31.738,51.270
1642605324.445,20.508,41.992,-555.176,22.461,14.648
1642605324.449,13.672,40.039,-602.051,4.883,54.688
1642605324.453,20.996,39.551,-612.793,6.348,24.414
1642605324.457,35.156,37.598,-509.277,28.320,20.020
1642605324.461,29.297,36.621,-500.977,28.320,53.711
1642605324.465,12.695,37.109,-673.828,11.230,47.852
1642605324.468,16.602,34.668,-781.738,10.742,37.109
1642605324.472,29.785,34.668,-721.680,29.297,31.738
1642605324.476,21.484,38.086,-511.230,42.969,72.266
1642605324.480,1.465,37.109,-759.277,27.832,13.184
1642605324.484,-3.418,34.668,-845.215,16.602,-39.062
1642605324.488,12.207,38.086,-518.555,31.250,3.906
1642605324.490,14.648,35.645,-606.445,42.969,10.742
1642605324.494,0.000,32.715,-673.828,31.738,24.902
1642605324.498,-0.977,36.133,-558.105,19.531,25.879
1642605324.502,17.578,39.551,-470.703,28.809,21.973
1642605324.506,27.832,37.598,-572.266,39.551,9.766
1642605324.510,15.625,33.691,-750.000,31.250,11.719
1642605324.513,0.000,33.691,-775.391,11.230,45.898
1642605324.517,7.324,38.086,-641.602,10.254,43.945
1642605324.521,18.066,37.109,-692.871,27.344,25.391
1642605324.525,6.836,32.715,-903.320,26.367,22.949
1642605324.529,-4.883,39.551,-718.750,11.719,19.043
1642605324.533,-0.977,44.922,-539.551,8.301,49.316
1642605324.535,9.277,42.969,-646.973,17.090,41.992
1642605324.539,8.301,42.480,-598.145,21.973,29.297
1642605324.543,-5.859,43.945,-558.105,6.836,68.359
1642605324.547,-10.254,43.945,-675.293,-1.465,69.824
1642605324.551,9.277,38.574,-707.031,10.254,51.270
1642605324.555,20.508,38.574,-796.875,22.461,16.602
1642605324.558,4.883,37.109,-780.273,19.531,2.930
1642605324.562,-7.812,34.668,-696.777,7.812,11.719
1642605324.566,-0.488,34.180,-838.867,15.625,-23.926
1642605324.570,6.348,32.715,-931.152,27.344,-62.988
1642605324.574,-1.465,40.527,-683.594,23.926,-38.086
1642605324.578,-8.789,41.016,-673.340,12.207,-7.812
1642605324.580,4.883,37.598,-804.199,9.766,27.832
1642605324.584,20.508,41.504,-688.477,27.832,27.344
1642605324.588,14.160,39.551,-555.664,32.715,41.016
1642605324.592,-3.906,37.109,-655.273,5.371,60.059
1642605324.596,-4.883,41.992,-730.469,-10.742,82.520
1642605324.600,12.207,41.016,-784.668,-4.395,91.309
1642605324.603,20.508,41.016,-908.691,0.977,40.527
1642605324.607,13.184,44.434,-911.133,-6.836,62.500
1642605324.611,3.906,37.598,-982.422,-28.320,15.137
1642605324.615,0.977,36.621,-899.902,-30.762,14.648
1642605324.619,6.348,38.574,-728.516,-14.160,78.125
1642605324.623,0.488,36.133,-851.074,-13.672,0.977
1642605324.625,-15.625,35.156,-916.992,-37.598,-30.762
1642605324.629,0.977,33.691,-731.934,-29.785,-2.441
1642605324.633,23.926,33.691,-665.527,-3.906,24.902
1642605324.637,17.090,34.180,-741.211,-12.207,2.930
1642605324.641,4.395,38.086,-745.605,-28.809,-36.621
1642605324.645,10.742,37.598,-760.254,-24.902,-42.969
1642605324.648,23.926,35.645,-778.809,-0.488,-19.531
1642605324.652,18.066,27.832,-854.980,-0.977,-33.203
1642605324.656,5.371,24.414,-957.031,-22.461,-60.547
1642605324.660,11.719,34.668,-714.355,-17.090,-55.664
1642605324.664,29.297,37.109,-539.062,6.836,-2.441
1642605324.668,33.203,31.738,-688.477,19.531,3.906
1642605324.671,24.902,32.715,-621.094,4.395,-30.273
1642605324.675,20.996,36.621,-441.406,-4.395,4.883
1642605324.679,36.133,32.715,-565.918,14.160,-10.742
1642605324.683,46.387,28.320,-651.367,27.344,-37.109
1642605324.687,33.691,25.391,-577.148,21.484,-10.742
1642605324.691,22.949,21.484,-664.062,6.348,29.785
1642605324.694,27.832,14.648,-798.340,7.324,-15.625
1642605324.698,39.551,11.230,-929.199,25.879,-85.938
1642605324.702,36.621,16.113,-750.977,27.832,-41.992
1642605324.706,25.879,17.578,-572.266,12.695,-20.996
1642605324.710,21.973,14.160,-682.617,4.395,-15.137
1642605324.714,29.785,15.625,-725.586,19.043,-2.930
1642605324.731,33.203,19.531,-560.547,35.156,29.297
1642605324.735,19.531,16.113,-497.070,20.996,44.434
1642605324.739,12.695,9.277,-662.598,7.324,28.320
1642605324.743,21.484,9.766,-635.254,13.672,57.617
1642605324.747,25.879,16.602,-486.816,27.344,31.250
1642605324.751,12.207,19.043,-621.582,22.949,-11.719
1642605324.754,-1.465,12.695,-860.352,5.371,4.395
1642605324.758,15.625,12.695,-937.012,9.766,-7.324
1642605324.762,34.180,18.066,-700.195,23.438,-32.227
1642605324.766,23.926,15.625,-576.172,31.250,-19.043
1642605324.770,11.719,14.648,-645.996,19.531,-19.531
1642605324.774,15.137,15.137,-598.633,20.508,-41.992
1642605324.761,30.762,16.113,-501.465,43.457,-26.367
1642605324.765,23.438,20.508,-573.242,40.039,-24.902
1642605324.769,4.395,19.043,-668.457,17.090,-19.043
1642605324.773,5.859,15.625,-628.418,3.906,-22.461
1642605324.777,25.391,15.625,-610.352,19.531,-33.203
1642605324.781,27.832,13.184,-787.109,33.691,-7.324
1642605324.784,9.277,17.090,-819.824,14.648,4.883
1642605324.788,6.348,24.414,-670.410,0.488,-5.371
1642605324.792,19.043,25.879,-621.582,15.625,-11.230
1642605324.796,22.949,20.996,-745.117,23.438,-21.484
1642605324.800,1.953,14.160,-971.191,2.930,-44.434
1642605324.804,-6.348,18.066,-860.840,-12.207,-24.414
1642605324.821,6.836,18.066,-648.926,1.465,32.227
1642605324.825,16.113,13.184,-779.785,19.531,19.531
1642605324.829,2.930,11.230,-876.465,13.184,-8.301
1642605324.833,-13.184,12.695,-681.152,-4.883,10.742
1642605324.837,-5.859,12.207,-679.688,-1.953,0.000
1642605324.841,5.371,6.836,-872.559,19.043,-8.301
1642605324.844,1.953,4.883,-941.895,18.066,-19.531
1642605324.848,-7.812,8.301,-743.164,2.930,-10.254
1642605324.852,-8.301,10.254,-603.516,13.184,35.645
1642605324.856,3.906,14.648,-721.191,32.715,0.488
1642605324.860,14.648,17.578,-721.191,44.434,12.207
1642605324.864,12.207,21.973,-586.914,45.410,58.594
1642605324.865,8.301,25.391,-671.875,34.180,12.695
1642605324.869,16.113,21.484,-744.629,41.016,-4.395
1642605324.873,18.555,21.484,-648.438,50.781,6.836
1642605324.877,6.836,25.391,-583.008,39.062,4.395
1642605324.881,8.789,30.273,-703.125,26.855,5.371
1642605324.885,44.434,29.785,-896.973,46.387,-7.324
1642605324.888,37.598,23.438,-878.418,52.734,-9.766
1642605324.892,-12.695,20.020,-868.164,19.043,37.109
1642605324.896,-36.133,21.484,-928.711,-3.906,21.484
1642605324.900,-38.086,17.090,-973.633,-5.859,-17.090
1642605324.904,-37.598,12.695,-949.219,-1.465,38.574
1642605324.908,-51.758,16.602,-864.258,-7.812,86.914
1642605324.910,-79.102,15.625,-894.043,-36.621,87.402
1642605324.914,-84.961,8.789,-977.539,-55.176,48.828
1642605324.918,-59.082,10.254,-967.773,-40.039,-3.418
1642605324.922,-46.875,14.648,-967.773,-23.438,42.969
1642605324.926,-59.570,8.789,-969.238,-40.039,83.984
1642605324.930,-64.941,3.906,-968.750,-53.711,23.438
1642605324.933,-43.945,8.789,-971.191,-29.785,10.254
1642605324.937,-26.855,10.742,-956.055,-10.742,21.973
1642605324.941,-32.715,9.277,-958.496,-10.254,-36.133
1642605324.945,-35.645,14.160,-954.102,-24.902,-34.668
1642605324.949,-19.531,20.996,-960.449,-23.438,-2.930
1642605324.953,-4.395,21.973,-927.734,1.953,-3.906
1642605324.955,-9.766,16.113,-942.383,-0.488,14.160
1642605324.959,-17.578,17.090,-936.523,-18.555,-8.789
1642605324.963,-5.371,21.484,-823.730,-19.531,8.789
1642605324.967,7.324,18.555,-855.469,-0.488,26.855
1642605324.971,1.953,16.113,-915.039,18.066,21.973
1642605324.975,-8.301,20.508,-935.059,-0.977,48.340
1642605324.978,-4.395,25.879,-966.309,-11.230,30.273
1642605324.982,10.254,19.043,-950.684,2.930,0.977
1642605324.986,7.812,14.160,-961.426,10.254,-1.953
1642605324.990,-6.836,22.461,-847.168,4.883,-3.906
1642605324.994,-12.207,25.391,-717.773,-8.301,17.578
1642605324.998,-2.930,20.508,-834.961,-3.418,42.480
1642605325.001,4.395,20.996,-901.855,14.648,52.734
1642605325.005,-7.324,24.414,-845.215,17.090,61.523
1642605325.009,-15.625,23.926,-820.801,5.371,72.754
1642605325.013,0.000,21.484,-872.559,10.742,56.641
1642605325.017,16.602,18.066,-838.379,33.203,51.758
1642605325.021,7.324,18.555,-840.820,27.344,41.016
1642605325.024,-6.836,20.508,-846.680,15.137,62.500
1642605325.028,1.953,20.020,-863.281,20.996,19.531
1642605325.032,17.578,19.531,-893.066,32.715,-63.477
1642605325.036,21.973,24.414,-666.504,42.480,9.766
1642605325.040,9.766,25.391,-640.625,27.344,80.078
1642605325.044,1.953,20.996,-752.930,15.625,29.297
1642605325.045,16.113,23.926,-729.980,29.785,4.883
1642605325.049,27.344,28.809,-652.832,47.363,13.672
1642605325.053,14.648,26.367,-683.594,37.598,-12.207
1642605325.057,1.465,25.391,-833.008,11.230,-21.973
1642605325.061,13.672,30.762,-818.359,20.996,20.020
1642605325.065,31.250,33.203,-736.816,44.922,33.203
1642605325.068,20.020,29.297,-843.750,35.156,7.812
1642605325.072,11.230,28.320,-981.934,17.090,-10.742
1642605325.076,26.367,31.738,-860.352,19.531,-14.648
1642605325.080,37.109,38.574,-630.859,35.156,19.531
1642605325.084,25.879,39.551,-725.586,32.715,31.738
1642605325.088,10.742,37.598,-848.633,11.230,22.461
1642605325.090,16.113,45.410,-683.594,8.301,50.781
1642605325.094,28.320,46.387,-559.570,24.902,61.035
1642605325.098,22.461,37.109,-648.926,28.320,36.133
1642605325.102,-1.465,31.738,-656.250,8.789,44.434
1642605325.106,-11.230,27.344,-577.148,-3.418,20.508
1642605325.110,1.953,25.879,-672.852,13.672,15.137
1642605325.113,1.953,23.438,-876.953,26.855,11.719
1642605325.117,-8.789,26.367,-955.566,15.625,-0.488
1642605325.121,0.000,31.738,-735.840,3.418,32.227
1642605325.125,19.531,33.691,-578.613,17.090,24.414
1642605325.129,30.273,34.180,-577.637,42.480,16.602
1642605325.133,22.949,35.156,-512.207,40.527,11.719
1642605325.135,8.301,36.133,-474.121,16.602,-10.742
1642605325.139,14.160,36.621,-485.352,12.695,-6.836
1642605325.143,31.738,37.109,-378.418,32.715,46.875
1642605325.147,29.297,39.551,-74.219,35.156,54.199
1642605325.151,8.789,42.480,211.426,15.137,23.438
1642605325.155,3.906,43.945,270.996,14.648,30.762
1642605325.158,28.809,50.293,159.668,40.527,15.625
1642605325.162,33.203,55.176,446.777,46.387,26.855
1642605325.166,-4.395,54.199,631.836,5.371,32.227
1642605325.170,-21.973,54.688,367.188,-19.043,26.367
1642605325.174,-19.043,55.176,250.488,-13.672,21.973
1642605325.178,-16.113,59.570,454.102,-9.766,-3.906
1642605325.195,-30.762,61.523,562.988,-19.531,-20.020
1642605325.199,-52.246,60.059,409.180,-47.852,-16.113
1642605325.203,-45.410,60.547,264.648,-53.711,-17.090
1642605325.207,-36.621,62.500,334.473,-29.785,17.090
1642605325.211,-43.945,62.988,248.047,-26.367,17.578
1642605325.215,-50.293,55.176,-119.141,-38.086,-34.668
1642605325.218,-41.992,54.199,-377.930,-40.527,-49.316
1642605325.222,-30.273,67.871,-339.355,-27.832,-67.871
1642605325.226,-34.668,75.195,-306.152,-16.602,-32.715
1642605325.230,-40.039,63.477,-692.383,-20.508,-45.410
1642605325.234,-28.809,62.500,-874.512,-18.555,-65.430
1642605325.238,-12.695,70.801,-692.383,-14.160,1.953
1642605325.240,-10.742,67.383,-826.660,-10.254,11.719
1642605325.244,-14.648,67.383,-973.145,-8.789,-3.906
1642605325.248,-4.883,74.219,-916.992,-19.531,11.719
1642605325.252,19.531,74.707,-849.121,-10.254,24.902
1642605325.256,31.738,70.312,-927.246,0.000,-8.301
1642605325.260,25.879,65.918,-975.586,-6.348,-30.273
1642605325.263,19.043,63.477,-966.797,-18.555,-21.484
1642605325.267,21.484,60.547,-969.238,-20.508,-2.441
1642605325.271,32.227,57.129,-969.727,-3.906,-9.766
1642605325.275,22.461,48.340,-969.238,-4.883,-16.113
1642605325.279,8.789,46.875,-969.727,-21.973,22.461
1642605325.283,20.020,52.734,-969.238,-12.695,63.965
1642605325.285,34.180,45.898,-969.238,3.906,19.531
1642605325.289,27.832,40.527,-969.238,12.695,-4.395
1642605325.293,8.301,40.039,-969.727,8.301,5.859
1642605325.297,2.930,37.109,-969.238,2.930,26.367
1642605325.301,10.742,30.762,-969.238,19.531,72.754
1642605325.305,12.695,23.438,-969.238,39.551,18.066
1642605325.308,1.465,22.949,-969.238,31.250,26.855
1642605325.312,-8.301,21.484,-969.238,8.789,23.926
1642605325.316,1.465,18.555,-969.238,25.391,-43.945
1642605325.320,20.020,19.043,-969.238,54.688,-2.930
1642605325.324,24.902,21.484,-969.238,61.035,50.293
1642605325.328,24.414,19.531,-969.238,51.270,28.320
1642605325.330,39.062,15.137,-969.238,46.387,17.578
1642605325.334,58.594,12.695,-969.238,65.430,25.391
1642605325.338,52.734,13.672,-969.238,70.312,51.758
1642605325.342,39.551,16.113,-969.238,45.898,14.160
1642605325.346,46.875,20.020,-969.727,40.039,-15.137
1642605325.350,64.453,21.484,-969.238,53.711,-17.578
1642605325.353,67.871,24.414,-969.727,60.059,2.930
1642605325.357,54.199,27.832,-965.332,44.922,67.871
1642605325.361,43.457,25.879,-976.562,29.297,16.602
1642605325.365,56.152,27.344,-937.500,42.969,26.855
1642605325.369,60.547,27.344,-823.242,51.758,70.801
1642605325.373,39.551,19.043,-883.789,38.086,30.762
1642605325.375,36.133,13.184,-923.340,36.621,48.340
1642605325.379,55.176,24.902,-788.086,49.805,84.473
1642605325.383,41.504,35.156,-775.879,32.715,74.707
1642605325.387,13.184,31.738,-898.926,8.789,3.906
1642605325.391,7.324,28.320,-902.832,-2.441,-14.160
1642605325.395,14.648,26.367,-922.852,1.465,56.152
1642605325.398,28.320,31.250,-939.453,20.996,81.055
1642605325.402,16.113,30.273,-916.992,15.137,33.691
1642605325.406,-2.930,25.879,-982.422,-5.371,4.395
1642605325.410,8.789,28.320,-912.109,-2.930,3.906
1642605325.414,18.555,29.785,-792.480,17.090,16.113
1642605325.418,9.766,24.414,-870.117,30.273,29.785
1642605325.420,-6.348,23.926,-895.508,18.066,-11.230
1642605325.424,-4.883,26.367,-840.820,9.277,9.766
1642605325.428,9.277,21.973,-903.320,26.367,5.371
1642605325.432,17.090,26.367,-951.172,42.480,-39.062
1642605325.436,12.207,29.297,-886.230,38.086,-22.461
1642605325.440,-2.930,27.832,-920.898,20.508,8.301
1642605325.443,8.301,30.273,-981.934,25.391,13.184
1642605325.447,24.902,32.715,-959.961,48.340,-29.785
1642605325.451,18.555,32.715,-861.328,44.434,20.508
1642605325.455,11.230,29.785,-811.523,27.832,-10.254
1642605325.459,21.973,33.203,-804.688,26.855,9.766
1642605325.463,39.551,35.645,-842.773,39.062,62.988
1642605325.466,46.875,40.039,-819.824,50.293,49.316
1642605325.470,31.250,41.992,-625.000,35.156,95.215
1642605325.474,24.414,35.645,-765.625,20.020,64.453
1642605325.478,38.574,31.738,-850.586,24.902,38.086
1642605325.482,35.645,33.203,-679.688,31.738,32.715
1642605325.486,16.113,32.227,-772.461,24.414,25.879
1642605325.489,2.441,31.250,-930.176,7.812,29.785
1642605325.493,11.719,30.273,-904.785,15.625,9.277
1642605325.497,28.320,34.180,-649.902,32.227,45.410
1642605325.501,13.672,31.250,-630.371,27.832,16.602
1642605325.505,-5.371,26.855,-800.781,16.602,-12.695
1642605325.509,2.930,27.344,-804.688,15.625,10.254
1642605325.525,17.090,31.250,-615.234,36.621,36.621
1642605325.529,7.324,31.250,-601.562,37.109,49.316
1642605325.533,-9.277,24.902,-839.844,14.160,-9.277
1642605325.537,0.488,26.367,-745.605,18.066,-5.371
1642605325.541,11.719,30.762,-589.355,26.855,13.184
1642605325.545,6.348,23.438,-756.836,29.297,5.859
1642605325.548,-14.648,17.578,-976.074,4.883,-11.230
1642605325.552,-14.160,27.832,-921.875,-21.973,-36.133
1642605325.556,10.254,35.156,-745.117,-2.930,-11.719
1642605325.560,17.578,35.156,-770.020,11.719,34.180
1642605325.564,6.348,36.621,-768.066,-0.977,64.941
1642605325.568,2.930,37.598,-663.574,-20.508,74.707
1642605325.570,17.090,40.039,-694.824,-9.766,68.359
1642605325.574,25.391,37.598,-802.246,9.277,34.668
1642605325.578,16.113,36.133,-785.645,-1.465,51.270
1642605325.582,9.277,35.156,-694.336,-19.531,61.035
1642605325.586,25.391,30.273,-714.844,-10.742,55.664
1642605325.590,39.062,35.645,-803.223,5.859,32.715
1642605325.593,18.066,44.922,-850.586,-14.648,36.621
1642605325.597,0.977,48.340,-786.133,-37.109,74.219
1642605325.601,11.719,49.316,-625.488,-26.855,85.938
1642605325.605,24.414,41.992,-796.875,-7.812,15.625
1642605325.609,26.367,39.551,-870.605,2.930,4.883
1642605325.613,13.672,43.945,-540.527,-5.859,87.891
1642605325.615,2.441,37.109,-506.836,-16.602,65.430
1642605325.619,15.137,32.715,-610.840,1.953,7.812
1642605325.623,19.043,32.715,-566.895,7.812,15.137
1642605325.627,5.859,35.156,-457.031,1.465,30.762
1642605325.631,-1.953,34.668,-593.750,-6.348,-3.906
1642605325.635,8.789,34.180,-802.734,-3.906,-40.527
1642605325.638,20.508,34.180,-759.766,17.090,6.836
1642605325.642,13.672,31.250,-695.801,20.508,8.301
1642605325.646,3.418,31.250,-797.852,12.695,-38.086
1642605325.650,5.371,23.926,-994.141,9.277,-21.973
1642605325.654,20.020,25.391,-809.082,24.902,7.324
1642605325.658,20.020,33.203,-524.902,41.992,35.156
1642605325.660,3.418,29.297,-614.746,27.832,3.906
1642605325.664,3.418,26.367,-718.262,14.160,-49.316
1642605325.668,11.230,26.855,-631.348,31.738,-56.152
1642605325.672,11.230,29.785,-539.062,49.316,-15.625
1642605325.676,1.953,32.227,-634.277,33.691,8.301
1642605325.680,-0.977,32.715,-756.348,13.672,-7.324
1642605325.683,14.160,33.691,-792.969,25.391,0.488
1642605325.687,29.785,36.133,-642.578,40.527,43.457
1642605325.691,19.531,35.156,-739.746,36.133,52.246
1642605325.695,13.184,37.109,-877.930,14.648,20.508
1642605325.699,29.785,43.945,-620.117,14.648,12.207
1642605325.703,39.062,44.922,-555.664,38.574,20.020
1642605325.705,32.715,41.504,-663.574,38.574,-6.836
1642605325.709,21.973,40.039,-623.535,15.625,-2.441
1642605325.713,27.832,38.574,-515.137,9.277,41.992
1642605325.717,38.086,40.039,-591.309,24.902,16.113
1642605325.721,24.414,38.574,-669.922,27.344,7.812
1642605325.725,2.930,30.273,-724.609,2.930,46.387
1642605325.728,1.953,32.227,-767.090,-5.859,53.711
1642605325.732,3.906,37.109,-806.152,-1.465,4.395
1642605325.736,-3.418,36.133,-949.219,-3.906,-61.035
1642605325.740,-15.137,36.621,-760.254,-7.812,-46.875
1642605325.744,-18.555,34.668,-567.871,-16.113,29.297
1642605325.748,-2.441,32.227,-732.422,-7.324,0.977
1642605325.750,8.789,29.785,-696.777,4.395,-7.812
1642605325.754,-6.348,28.809,-652.344,-0.977,31.250
1642605325.758,-21.973,29.785,-718.750,-6.836,5.371
1642605325.762,-19.531,26.855,-828.613,1.465,-27.832
1642605325.766,-7.324,28.809,-872.559,27.344,-59.082
1642605325.770,0.488,33.691,-750.488,31.250,-6.836
1642605325.773,-5.859,33.691,-733.887,15.137,35.156
1642605325.777,-7.812,27.832,-867.188,13.672,2.930
1642605325.781,0.488,27.832,-907.715,25.391,-35.156
1642605325.785,2.441,37.109,-614.746,40.039,-7.324
1642605325.789,-10.742,40.527,-540.039,23.926,37.598
1642605325.793,-15.625,35.156,-693.359,4.883,31.250
1642605325.809,-1.465,32.715,-637.207,22.949,21.973
1642605325.813,7.812,38.086,-517.090,48.340,57.129
1642605325.817,-5.371,34.668,-599.609,36.621,63.965
1642605325.821,-12.695,32.227,-743.652,10.254,23.438
1642605325.825,3.418,37.109,-755.859,19.531,9.766
1642605325.829,20.020,43.457,-645.508,45.410,46.387
1642605325.832,6.836,46.875,-693.359,37.598,22.949
1642605325.836,-12.207,38.086,-951.660,11.719,-2.441
1642605325.840,-0.488,35.645,-885.254,6.836,-1.953
1642605325.844,17.578,42.480,-573.242,32.227,51.758
1642605325.848,7.324,39.551,-683.594,33.691,74.219
1642605325.852,-14.160,38.086,-745.605,6.836,42.480
1642605325.840,-6.348,42.480,-523.438,4.883,94.727
1642605325.844,11.230,41.992,-521.484,20.508,75.195
1642605325.848,13.184,37.109,-591.309,34.180,32.715
1642605325.852,1.465,38.086,-617.188,19.043,49.805
1642605325.856,1.465,39.062,-598.145,3.418,30.273
1642605325.860,15.625,34.180,-727.539,20.996,17.578
1642605325.863,13.184,30.762,-868.164,29.297,0.488
1642605325.867,-0.977,30.273,-802.246,12.695,-42.969
1642605325.871,-6.836,34.180,-658.203,-1.465,-38.086
1642605325.875,2.441,36.133,-565.918,2.441,-17.090
1642605325.879,7.812,23.926,-798.828,16.113,-41.504
1642605325.883,-5.859,19.531,-935.547,5.859,-55.664
1642605325.885,-14.160,30.762,-633.789,-13.184,3.906
1642605325.889,-4.395,30.273,-582.031,-3.906,-7.812
1642605325.893,11.230,26.855,-710.938,13.672,-58.594
1642605325.897,4.883,32.227,-592.773,13.184,-50.781
1642605325.901,-3.906,37.598,-453.613,-0.977,17.090
1642605325.905,2.441,36.133,-682.617,-4.883,32.715
1642605325.908,12.207,26.855,-961.426,1.465,-20.996
1642605325.912,15.137,27.344,-739.746,7.324,-33.691
1642605325.916,-4.883,33.691,-526.855,-1.465,-28.809
1642605325.920,-12.207,28.809,-674.316,-18.555,-20.508
1642605325.924,2.441,28.320,-738.281,-10.742,-31.738
1642605325.928,11.719,34.180,-630.371,12.695,-56.641
1642605325.945,0.488,32.715,-571.777,13.184,-55.176
1642605325.949,-9.766,32.227,-661.133,-2.930,-15.625
1642605325.953,4.883,33.203,-657.715,0.977,4.883
1642605325.957,17.578,31.250,-539.551,21.973,-28.809
1642605325.961,5.371,30.273,-498.535,29.785,21.484
1642605325.965,-5.859,23.926,-700.195,-1.465,34.668
1642605325.968,11.719,26.855,-806.641,-7.324,-15.625
1642605325.972,16.113,33.691,-620.605,17.090,-13.184
1642605325.976,-13.184,31.250,-517.090,14.160,23.926
1642605325.980,-36.133,27.832,-764.648,-3.418,-21.484
1642605325.984,-38.086,29.785,-868.652,-18.066,-46.875
1642605325.988,-22.949,35.156,-608.887,-11.719,-10.254
1642605325.990,-24.414,30.762,-730.469,-8.301,-28.320
1642605325.994,-40.039,30.762,-887.695,-15.625,-15.137
1642605325.998,-47.852,35.156,-704.590,-28.809,9.766
1642605326.002,-29.297,35.156,-591.797,-13.184,-3.418
1642605326.006,-10.254,31.738,-672.363,4.395,-11.230
1642605326.010,-14.648,31.738,-812.988,-1.953,4.395
1642605326.013,-16.602,33.691,-886.230,-11.719,8.789
1642605326.017,1.953,32.227,-787.598,-6.836,29.297
1642605326.021,20.508,31.250,-800.293,14.160,-0.488
1642605326.025,11.719,33.691,-949.707,8.301,-63.477
1642605326.029,3.418,40.039,-778.320,-12.207,-69.824
1642605326.033,4.395,37.109,-615.723,-7.812,-51.270
1642605326.035,10.742,29.297,-697.754,6.836,-43.945
1642605326.039,7.812,29.785,-671.875,15.625,-34.668
1642605326.043,-7.324,30.762,-624.512,-1.953,-39.551
1642605326.047,-7.812,26.367,-731.445,-10.742,-46.387
1642605326.051,-0.977,27.344,-871.582,6.348,-32.715
1642605326.055,5.859,32.227,-902.832,19.531,-35.156
1642605326.058,5.859,36.621,-866.211,13.672,-31.250
1642605326.062,0.488,39.062,-826.660,-2.930,-25.879
1642605326.066,12.207,35.156,-879.395,9.277,-39.551
1642605326.070,19.531,31.738,-879.883,30.762,-47.363
1642605326.074,4.883,33.203,-607.910,18.066,-14.648
1642605326.078,-11.230,31.250,-647.461,2.930,-20.508
1642605326.080,0.488,31.250,-743.652,4.395,-71.289
1642605326.084,15.137,32.715,-643.555,20.508,-105.469
1642605326.088,6.348,31.738,-539.062,28.320,-30.273
1642605326.092,-11.719,28.320,-637.695,9.766,-58.105
1642605326.096,-6.348,25.879,-761.719,1.953,-91.797
1642605326.100,10.254,26.855,-744.141,15.137,-47.363
1642605326.103,9.766,31.738,-732.422,28.320,-44.434
1642605326.107,-2.441,29.297,-754.883,20.996,-50.293
1642605326.111,-4.395,27.344,-960.938,9.277,-99.121
1642605326.115,12.207,34.180,-851.562,17.578,-61.523
1642605326.119,25.879,33.203,-547.363,31.738,-32.715
1642605326.123,11.719,30.762,-600.098,16.602,-78.125
1642605326.125,5.371,34.180,-633.301,-3.906,-70.312
1642605326.129,21.973,39.551,-487.793,10.254,-29.785
1642605326.133,28.809,40.039,-430.664,27.344,-27.832
1642605326.137,15.625,33.203,-564.453,17.090,-61.035
1642605326.141,4.883,34.180,-634.766,4.883,-104.980
1642605326.145,11.230,35.645,-736.816,7.324,-118.164
1642605326.148,23.926,31.250,-706.055,26.367,-50.293
1642605326.152,14.648,27.832,-753.906,35.645,-11.719
1642605326.156,-4.395,26.367,-928.223,8.789,-41.504
1642605326.160,1.953,30.273,-714.355,1.465,-53.223
1642605326.164,16.113,30.273,-536.621,26.855,-37.598
1642605326.168,14.160,26.367,-602.539,36.133,-22.949
1642605326.171,4.395,27.832,-590.820,18.066,-20.996
1642605326.175,4.883,29.785,-580.566,4.395,-76.172
1642605326.179,12.695,27.832,-636.230,17.578,-68.359
1642605326.183,14.160,29.785,-584.473,29.785,-32.227
1642605326.187,0.000,36.133,-524.902,16.602,-86.914
1642605326.191,-10.742,32.715,-630.859,-1.953,-79.102
1642605326.194,-2.930,28.809,-763.184,-7.324,-35.645
1642605326.198,1.953,28.320,-905.273,4.883,-48.828
1642605326.202,-1.953,34.180,-753.418,2.441,-43.457
1642605326.206,-6.348,39.551,-518.555,-14.160,-74.219
1642605326.210,0.000,39.551,-564.941,-14.160,-72.754
1642605326.214,15.137,41.016,-659.180,2.441,-40.039
1642605326.231,9.277,41.504,-543.457,13.184,-13.672
1642605326.235,-4.395,40.527,-431.641,1.953,24.902
1642605326.239,-0.488,38.086,-676.758,-1.953,-45.410
1642605326.243,14.648,37.109,-752.930,8.301,-83.496
1642605326.247,18.066,38.086,-580.078,16.602,-57.129
1642605326.251,1.465,39.062,-620.117,15.137,-18.555
1642605326.254,-4.395,34.180,-848.633,2.441,-27.344
1642605326.258,7.812,30.273,-879.395,11.719,-84.473
1642605326.262,24.902,39.551,-531.738,27.344,-33.203
1642605326.266,15.137,39.062,-470.215,21.973,-42.480
1642605326.270,3.906,36.133,-604.980,10.742,-71.289
1642605326.274,15.137,40.039,-517.090,18.066,-28.809
1642605326.275,40.527,40.527,-449.219,51.270,-19.531
1642605326.279,32.227,31.738,-499.512,53.223,28.809
1642605326.283,-12.695,20.996,-584.961,16.113,76.660
1642605326.287,-14.648,21.973,-561.523,10.254,55.176
1642605326.291,5.859,22.461,-432.129,32.715,25.879
1642605326.295,6.348,17.090,-608.398,45.898,17.090
1642605326.298,-4.883,16.602,-746.094,24.414,-14.160
1642605326.302,-6.348,19.043,-538.574,2.930,7.812
1642605326.306,11.719,23.438,-383.789,18.066,30.762
1642605326.310,28.809,25.391,-508.789,36.133,-26.367
1642605326.314,14.648,22.461,-918.457,19.531,-57.617
1642605326.318,6.836,28.320,-817.383,-8.789,-41.992
1642605326.320,23.438,31.250,-471.191,11.230,-19.531
1642605326.324,28.320,26.855,-480.957,37.109,13.672
1642605326.328,8.301,23.926,-562.012,24.902,4.883
1642605326.332,-4.883,23.438,-480.469,11.719,45.410
1642605326.336,6.348,23.438,-461.914,16.113,55.664
1642605326.340,20.020,25.391,-617.676,32.715,41.504
1642605326.343,17.090,28.320,-721.680,40.527,59.082
1642605326.347,3.906,33.203,-624.023,23.438,55.664
1642605326.351,4.883,30.273,-472.656,13.672,69.336
1642605326.355,24.902,22.949,-711.426,25.879,53.711
1642605326.359,22.461,25.879,-936.035,32.715,36.621
1642605326.363,7.324,32.227,-694.824,6.836,19.043
1642605326.365,11.719,32.715,-564.941,-4.883,-22.949
1642605326.369,24.902,30.762,-608.398,13.672,-18.555
1642605326.373,28.809,31.738,-560.059,21.484,-15.137
1642605326.377,15.137,34.180,-480.469,13.672,15.625
1642605326.381,9.277,32.227,-551.758,8.789,38.574
1642605326.385,22.461,33.203,-720.703,18.066,18.066
1642605326.388,27.832,35.645,-770.996,28.809,-15.625
1642605326.392,20.996,38.086,-686.523,22.461,-16.113
1642605326.396,10.742,34.180,-743.164,3.418,-6.348
1642605326.400,11.719,25.391,-986.816,-0.488,-40.527
1642605326.404,19.531,28.320,-841.797,11.719,-16.602
1642605326.408,15.137,32.227,-553.711,11.719,29.297
1642605326.410,3.906,29.785,-658.203,-6.348,34.180
1642605326.414,4.395,26.855,-682.617,-1.465,13.184
1642605326.418,16.602,28.809,-560.547,22.461,7.812
1642605326.422,12.207,36.133,-572.266,26.855,-17.578
1642605326.426,0.488,35.645,-654.297,15.625,-43.457
1642605326.430,-4.883,26.855,-805.664,2.441,-44.922
1642605326.433,7.812,26.855,-814.453,15.625,-49.805
1642605326.437,22.461,33.203,-594.238,33.203,-21.973
1642605326.441,8.301,30.762,-762.207,20.020,-52.734
1642605326.445,0.488,29.297,-884.766,-5.371,-58.105
1642605326.449,19.043,31.250,-703.125,-2.930,-29.297
1642605326.453,34.180,32.227,-714.844,14.648,-14.648
1642605326.455,32.715,34.668,-738.770,3.418,-17.578
1642605326.459,12.207,35.645,-729.004,-20.508,-34.668
1642605326.463,7.812,37.109,-666.992,-20.508,-27.344
1642605326.467,33.203,36.621,-722.168,-0.977,-17.090
1642605326.471,29.785,35.645,-772.949,7.812,-6.836
1642605326.475,14.160,35.156,-894.531,-5.371,-37.109
1642605326.478,18.066,34.668,-910.156,-10.742,-68.359
1642605326.482,30.762,34.180,-825.195,5.859,-31.250
1642605326.486,25.879,35.645,-930.176,15.137,-52.734
1642605326.490,12.695,38.086,-785.645,0.977,-56.641
1642605326.494,17.578,39.062,-605.469,-11.230,-16.602
1642605326.498,31.250,38.086,-727.539,1.953,-50.781
1642605326.502,35.645,38.574,-721.191,14.160,-31.250
1642605326.506,27.832,40.039,-673.828,3.906,-15.625
1642605326.510,19.531,37.598,-747.559,-7.812,-43.945
1642605326.514,22.949,34.180,-813.965,-4.395,-56.641
1642605326.518,35.156,33.203,-723.145,17.578,-42.969
1642605326.522,27.832,33.691,-598.633,17.090,-16.113
1642605326.525,15.137,33.203,-551.270,-7.812,-6.836
1642605326.529,22.949,32.227,-722.168,-5.371,-33.203
1642605326.533,32.227,32.715,-774.902,20.020,-48.340
1642605326.537,26.855,39.062,-448.242,30.273,-32.227
1642605326.541,11.230,36.133,-464.355,9.277,-5.371
1642605326.545,12.207,33.691,-592.285,-1.953,-38.574
1642605326.545,26.855,37.109,-554.199,19.531,-68.359
1642605326.549,33.691,37.598,-445.801,29.785,-15.625
1642605326.553,15.137,36.133,-562.500,10.254,-22.461
1642605326.557,6.348,35.156,-675.293,-4.883,-25.391
1642605326.561,24.902,36.133,-654.297,8.301,0.488
1642605326.565,30.273,33.203,-692.871,30.762,-5.371
1642605326.568,8.789,30.273,-772.949,20.996,23.438
1642605326.572,0.488,28.320,-965.820,3.418,6.836
1642605326.576,21.484,33.691,-895.020,2.441,-19.043
1642605326.580,35.645,40.039,-588.379,22.461,26.367
1642605326.584,27.344,37.598,-539.551,32.227,27.832
1642605326.588,12.207,38.086,-577.148,12.695,14.160
1642605326.590,14.648,36.133,-573.730,10.254,-13.184
1642605326.594,29.297,37.109,-509.766,22.949,4.883
1642605326.598,26.367,39.551,-521.484,22.949,21.484
1642605326.602,11.230,39.551,-581.055,12.695,-54.688
1642605326.606,10.254,37.109,-594.238,1.953,-84.473
1642605326.610,22.949,35.156,-690.918,12.207,-79.102
1642605326.613,32.227,33.203,-853.516,18.555,-72.754
1642605326.617,14.648,32.715,-954.102,0.488,-71.289
1642605326.621,5.371,39.062,-664.551,-11.230,-22.461
1642605326.625,23.438,45.410,-475.098,1.465,3.906
1642605326.629,31.250,43.457,-577.148,20.996,-4.395
1642605326.633,15.625,39.551,-594.727,10.254,-15.625
1642605326.635,0.000,40.039,-539.551,-11.230,-3.418
1642605326.639,12.207,38.086,-620.605,-5.371,-7.812
1642605326.643,28.809,36.621,-715.332,17.578,-55.176
1642605326.647,19.531,39.062,-603.516,23.926,-59.082
1642605326.651,3.418,36.133,-576.172,0.000,-65.430
1642605326.655,2.930,31.250,-740.234,-7.324,-32.715
1642605326.658,13.184,29.785,-962.891,9.766,-35.156
1642605326.662,11.230,33.203,-798.340,19.043,-65.430
1642605326.666,-4.883,35.156,-511.719,8.789,-7.324
1642605326.670,-9.766,31.250,-660.645,-1.465,-19.531
1642605326.674,8.789,35.156,-761.719,17.090,-38.574
1642605326.678,19.043,41.016,-598.145,37.598,3.906
1642605326.695,13.184,40.039,-551.270,38.574,-18.555
1642605326.699,20.508,38.086,-697.266,36.621,-26.855
1642605326.703,17.090,30.273,-726.074,31.250,-2.441
1642605326.707,5.859,17.090,-518.555,34.668,-1.465
1642605326.711,6.348,13.672,-358.398,50.293,56.641
1642605326.715,8.301,18.066,-403.809,52.734,74.219
1642605326.718,16.602,14.160,-437.988,57.129,42.969
1642605326.722,40.039,13.184,-167.969,81.543,65.918
1642605326.726,40.527,15.625,-18.066,88.379,28.320
1642605326.730,22.949,11.230,-325.684,71.777,-27.344
1642605326.734,42.480,11.230,-395.508,70.801,-14.160
1642605326.738,64.941,16.113,-166.504,87.402,-12.207
1642605326.740,62.012,13.672,-214.844,95.703,45.410
1642605326.744,54.688,11.719,-490.723,85.938,65.430
1642605326.748,56.152,20.508,-452.637,72.754,37.598
1642605326.752,67.871,25.391,-273.438,78.125,69.824
1642605326.756,64.453,20.996,-364.258,89.844,74.707
1642605326.760,41.016,18.555,-558.594,76.660,77.148
1642605326.763,32.715,23.438,-649.902,47.852,89.355
1642605326.767,48.340,28.809,-505.859,49.316,83.008
1642605326.771,58.105,28.320,-563.965,70.312,83.008
1642605326.775,41.504,23.438,-819.824,57.617,71.289
1642605326.779,34.180,25.879,-644.043,35.156,30.762
1642605326.783,45.898,28.320,-511.230,41.016,0.977
1642605326.785,48.828,24.902,-656.250,54.199,20.996
1642605326.789,38.086,25.879,-610.840,57.129,45.410
1642605326.793,24.414,31.250,-405.762,36.621,37.598
1642605326.797,21.484,28.320,-520.996,23.438,-5.371
1642605326.801,30.762,22.461,-731.934,41.992,-35.156
1642605326.805,32.715,23.926,-729.492,57.129,-5.371
1642605326.808,20.508,26.367,-713.379,45.898,-15.625
1642605326.812,18.066,23.438,-639.160,26.367,19.531
1642605326.816,29.297,20.020,-757.324,35.645,25.391
1642605326.820,33.203,21.484,-902.344,55.176,-50.781
1642605326.824,26.367,30.273,-605.469,46.875,-11.719
1642605326.828,16.602,32.227,-567.871,37.598,-9.766
1642605326.830,21.484,26.367,-637.695,38.574,21.973
1642605326.834,32.227,28.809,-533.203,47.852,19.043
1642605326.838,33.203,33.203,-512.207,57.129,-1.465
1642605326.842,19.531,33.203,-634.277,41.992,12.207
1642605326.846,24.902,38.574,-729.004,36.133,-8.301
1642605326.850,37.109,40.039,-774.414,46.875,10.254
1642605326.853,29.785,35.645,-812.500,46.875,14.160
1642605326.857,12.207,35.156,-826.172,38.574,37.109
1642605326.861,6.348,33.203,-976.562,22.949,-3.906
1642605326.865,27.344,38.574,-860.352,36.133,-45.410
1642605326.869,34.180,43.945,-542.969,51.270,21.973
1642605326.873,19.043,41.016,-620.605,35.645,29.785
1642605326.875,21.973,37.109,-731.934,34.668,15.625
1642605326.879,42.480,39.551,-643.066,49.805,1.953
1642605326.883,31.250,48.828,-574.707,47.363,22.949
1642605326.887,-0.488,50.293,-659.668,19.043,17.090
1642605326.891,-7.812,42.969,-705.078,2.930,-25.879
1642605326.895,-3.418,38.086,-759.766,6.348,-18.555
1642605326.898,9.277,41.992,-733.887,24.902,46.875
1642605326.902,5.371,39.551,-795.898,27.344,68.848
1642605326.906,-12.207,38.086,-920.898,4.883,50.293
1642605326.910,0.977,44.922,-712.402,7.324,90.820
1642605326.914,19.043,42.480,-622.559,28.320,62.988
1642605326.918,16.602,40.039,-768.066,34.180,37.598
1642605326.921,2.930,39.551,-765.625,17.578,60.547
1642605326.925,0.000,40.039,-664.062,7.324,49.316
1642605326.929,17.090,34.668,-717.773,20.020,61.523
1642605326.933,23.438,31.738,-708.984,37.109,30.762
1642605326.937,12.207,37.109,-653.320,24.414,1.465
1642605326.941,9.277,40.039,-786.621,6.836,3.418
1642605326.944,23.926,41.504,-913.086,19.043,-15.137
1642605326.948,28.809,38.574,-972.656,34.180,-32.715
1642605326.952,12.695,36.133,-798.828,21.484,-44.922
1642605326.956,2.930,37.598,-583.008,4.395,7.812
1642605326.960,10.254,37.598,-662.598,5.859,-2.930
1642605326.964,23.926,35.156,-706.543,19.531,-9.277
1642605326.966,29.297,38.086,-667.969,26.367,10.254
1642605326.970,20.508,39.062,-592.773,18.555,14.160
1642605326.974,19.531,32.227,-697.754,8.789,49.316
1642605326.978,33.203,28.809,-693.848,19.043,88.867
1642605326.982,33.691,29.785,-555.176,28.320,65.918
1642605326.986,14.160,31.738,-652.832,17.090,34.180
1642605326.989,7.812,29.785,-852.539,4.395,-15.137
1642605326.993,26.855,28.320,-939.941,10.742,-49.805
1642605326.997,37.598,37.598,-642.578,30.273,30.762
1642605327.001,22.949,39.551,-463.379,23.438,79.102
1642605327.005,9.277,32.227,-621.582,6.348,33.203
1642605327.009,17.090,31.738,-667.969,11.719,21.484
1642605327.010,22.461,34.180,-488.281,32.227,105.957
1642605327.014,6.836,29.785,-482.422,28.809,81.543
1642605327.018,-5.859,27.832,-702.637,12.695,22.949
1642605327.022,3.418,33.691,-708.008,18.066,33.203
1642605327.026,19.531,36.621,-503.906,34.180,28.809
1642605327.030,19.531,31.250,-603.516,43.457,39.062
1642605327.033,0.977,27.344,-948.730,20.508,-17.578
1642605327.037,2.930,31.738,-868.652,7.812,-33.203
1642605327.041,21.973,37.598,-554.199,35.156,53.223
1642605327.045,17.090,36.621,-568.359,41.992,53.223
1642605327.049,3.906,33.203,-643.066,24.902,17.090
1642605327.053,8.301,28.320,-585.449,12.695,41.016
1642605327.071,23.926,31.250,-508.301,22.949,63.965
1642605327.075,27.344,34.180,-578.125,42.480,21.484
1642605327.079,17.090,35.156,-622.559,33.203,-11.719
1642605327.083,8.301,34.180,-531.738,17.090,14.648
1642605327.087,15.137,32.227,-554.688,12.695,19.531
1642605327.091,28.809,35.156,-692.871,31.250,33.691
1642605327.094,21.973,37.598,-803.711,39.551,45.410
1642605327.098,8.789,40.527,-662.109,14.648,54.199
1642605327.102,17.578,41.992,-489.746,10.742,86.426
1642605327.106,30.762,40.039,-777.832,16.602,5.859
1642605327.110,23.926,39.551,-934.082,9.277,-39.551
1642605327.114,14.648,41.504,-611.328,-3.418,37.598
1642605327.115,20.020,41.016,-579.590,-11.719,55.664
1642605327.119,31.250,37.598,-686.035,3.906,67.383
1642605327.123,31.250,36.621,-592.285,14.648,87.402
1642605327.127,13.184,39.062,-554.199,7.812,53.711
1642605327.131,0.000,36.133,-664.551,5.859,11.230
1642605327.135,10.254,33.203,-764.648,18.555,22.461
1642605327.138,20.996,37.109,-748.047,32.227,25.879
1642605327.142,4.395,37.109,-644.043,20.020,36.621
1642605327.146,-14.648,32.715,-697.266,1.953,50.781
1642605327.150,-9.277,28.809,-977.539,4.395,8.301
1642605327.154,5.859,33.203,-814.941,20.508,29.297
1642605327.158,6.348,36.133,-506.348,31.250,72.754
1642605327.160,-0.977,32.227,-549.805,15.137,47.852
1642605327.164,2.441,31.738,-570.312,12.695,60.059
1642605327.168,10.742,35.645,-435.059,34.668,128.418
1642605327.172,4.883,30.762,-441.406,32.227,103.027
1642605327.176,-12.207,23.438,-516.113,9.766,99.609
1642605327.180,-12.695,19.531,-611.328,-2.441,83.984
1642605327.183,9.277,21.973,-696.289,14.648,68.848
1642605327.187,26.855,31.738,-538.574,41.504,92.773
1642605327.191,3.418,29.785,-705.566,18.555,50.781
1642605327.195,-25.391,27.832,-857.422,-17.090,24.902
1642605327.199,-5.371,30.273,-667.480,-7.812,30.273
1642605327.203,0.488,27.344,-675.781,10.742,65.430
1642605327.205,-13.672,29.785,-673.340,6.348,86.426
1642605327.209,-10.254,31.738,-575.684,-3.418,63.477
1642605327.213,1.953,34.180,-440.918,2.930,94.727
1642605327.217,13.184,32.227,-527.832,22.461,122.070
1642605327.221,9.766,27.832,-641.602,32.715,95.703
1642605327.225,-5.859,26.855,-679.688,17.578,84.961
1642605327.228,-2.930,28.809,-721.680,1.953,72.754
1642605327.232,16.602,32.227,-772.949,16.602,25.391
1642605327.236,17.090,30.273,-811.035,28.809,23.926
1642605327.240,3.418,32.227,-622.559,13.672,70.801
1642605327.244,4.883,34.180,-501.953,4.883,44.434
1642605327.248,15.625,30.762,-728.516,11.230,23.438
1642605327.251,20.508,28.809,-866.211,20.996,28.809
1642605327.255,12.207,29.785,-688.477,12.207,27.344
1642605327.259,6.836,32.715,-685.547,-8.789,24.414
1642605327.263,17.090,34.180,-793.945,-3.418,-7.324
1642605327.267,24.902,32.715,-752.930,16.602,-0.977
1642605327.271,12.207,31.250,-724.121,11.230,-8.789
1642605327.274,0.000,27.344,-849.121,-13.672,-14.160
1642605327.278,7.812,26.367,-938.477,-17.090,-5.371
1642605327.282,25.391,29.297,-900.879,-0.488,-3.906
1642605327.286,22.949,34.180,-715.332,6.348,56.641
1642605327.290,5.371,31.738,-738.281,-8.301,56.641
1642605327.294,11.230,32.715,-826.660,-13.672,-36.621
1642605327.310,33.203,40.039,-679.688,12.695,-6.348
1642605327.314,39.062,40.527,-529.297,26.367,47.852
1642605327.318,22.461,36.133,-631.348,13.672,14.648
1642605327.322,17.090,36.621,-654.297,0.977,46.387
1642605327.326,33.691,35.156,-646.484,9.766,53.711
1642605327.330,40.039,28.320,-748.047,31.738,25.879
1642605327.333,23.438,28.809,-751.953,25.391,0.488
1642605327.337,8.301,31.250,-937.500,9.277,-45.898
1642605327.341,21.484,33.691,-846.191,9.277,-1.953
1642605327.345,34.668,36.621,-495.117,25.879,38.086
1642605327.349,20.996,34.668,-524.902,32.227,23.926
1642605327.353,11.230,34.668,-517.578,16.602,46.875
1642605327.340,20.020,35.645,-444.824,19.531,54.688
1642605327.344,30.762,36.621,-467.773,30.762,67.383
1642605327.348,24.414,38.086,-533.203,35.645,41.504
1642605327.352,11.719,40.527,-588.379,31.250,21.484
1642605327.356,12.207,38.086,-567.383,19.043,9.766
1642605327.360,26.367,37.598,-614.746,30.273,27.344
1642605327.363,32.227,41.016,-790.039,32.715,29.297
1642605327.367,14.160,41.016,-842.285,14.160,-7.324
1642605327.371,8.789,41.992,-673.340,5.859,0.977
1642605327.375,20.996,39.551,-645.996,8.789,-1.465
1642605327.379,28.809,33.691,-852.539,25.879,-10.742
1642605327.383,31.250,27.832,-939.453,32.227,0.977
1642605327.385,37.109,34.180,-673.340,27.832,80.566
1642605327.389,37.598,42.969,-597.168,17.578,39.551
1642605327.393,31.250,44.922,-580.078,12.695,-25.391
1642605327.397,36.133,41.504,-319.824,29.785,41.016
1642605327.401,33.691,37.598,-140.137,23.438,61.035
1642605327.405,40.039,31.738,-303.711,17.090,6.836
1642605327.408,47.363,27.832,-462.402,43.457,-5.859
1642605327.412,42.480,29.785,-293.457,51.270,-7.324
1642605327.416,42.969,30.273,-228.027,39.551,2.930
1642605327.420,38.086,30.273,-458.984,31.738,15.137
1642605327.424,37.109,26.855,-819.336,43.457,-27.344
1642605327.428,40.039,28.320,-647.461,52.246,-9.766
1642605327.445,33.203,31.250,-353.027,42.480,20.020
1642605327.449,15.625,24.902,-424.316,25.879,-8.789
1642605327.453,20.996,23.926,-425.781,24.414,10.742
1642605327.457,32.715,28.809,-363.770,41.504,43.945
1642605327.461,23.926,22.949,-429.688,40.039,47.852
1642605327.465,18.555,22.461,-590.820,21.484,47.363
1642605327.468,23.926,31.738,-702.148,17.090,51.270
1642605327.472,29.785,34.668,-566.406,25.879,36.621
1642605327.476,30.273,36.621,-395.996,30.273,30.273
1642605327.480,12.695,33.203,-703.613,9.277,17.090
1642605327.484,11.719,31.738,-817.871,-2.930,31.738
1642605327.488,29.785,33.203,-465.332,16.602,59.082
1642605327.490,23.438,32.715,-532.715,25.879,44.922
1642605327.494,3.906,31.738,-744.141,10.742,23.438
1642605327.498,3.418,28.809,-651.855,-2.441,5.371
1642605327.502,19.043,29.297,-539.551,13.184,12.207
1642605327.506,20.996,28.320,-535.156,33.203,56.641
1642605327.510,6.836,27.344,-668.457,22.949,44.434
1642605327.513,3.418,30.762,-779.785,11.719,45.898
1642605327.517,18.555,34.668,-584.473,25.879,91.797
1642605327.521,25.391,37.598,-556.152,49.805,99.121
1642605327.525,13.672,33.691,-871.094,46.387,43.945
1642605327.529,1.465,32.715,-740.234,27.832,34.668
1642605327.533,6.348,34.668,-538.574,33.203,68.848
1642605327.535,22.949,32.715,-621.582,52.246,78.125
1642605327.539,24.414,34.180,-677.734,56.152,53.223
1642605327.543,6.836,33.203,-567.383,41.016,40.039
1642605327.547,4.883,30.762,-680.664,30.762,17.090
1642605327.551,17.090,34.668,-924.805,44.922,30.273
1642605327.555,12.695,36.621,-925.781,52.734,8.789
1642605327.558,-2.441,32.227,-880.371,36.133,-5.371
1642605327.562,-0.977,34.180,-823.242,20.996,24.902
1642605327.566,13.184,35.156,-879.883,25.879,-11.719
1642605327.570,24.902,40.039,-911.621,37.109,1.953
1642605327.574,24.414,55.664,-669.434,33.203,100.098
1642605327.578,13.672,56.641,-701.172,12.695,49.316
1642605327.580,22.461,55.664,-823.242,6.348,-11.230
1642605327.584,36.621,55.176,-708.008,20.020,1.953
1642605327.588,23.438,47.852,-653.809,19.043,-40.039
1642605327.592,8.301,46.387,-714.355,3.418,-10.254
1642605327.596,13.672,45.410,-804.199,1.465,-1.465
1642605327.600,28.809,47.363,-810.547,17.578,-5.859
1642605327.603,28.320,49.316,-786.621,24.902,12.695
1642605327.607,11.719,44.922,-848.145,8.301,-9.766
1642605327.611,6.348,41.504,-979.492,-7.812,-72.754
1642605327.615,22.461,48.340,-890.137,8.789,-78.125
1642605327.619,27.832,47.852,-642.578,25.391,12.207
1642605327.623,8.301,39.551,-715.332,14.160,38.086
1642605327.625,1.465,43.945,-788.086,3.906,14.160
1642605327.629,14.648,52.246,-666.504,11.719,54.688
1642605327.633,11.719,46.875,-631.836,27.832,65.918
1642605327.637,-8.301,38.574,-696.777,15.625,61.523
1642605327.641,-19.043,35.156,-715.820,-1.465,53.223
1642605327.645,-9.766,37.109,-790.039,16.602,27.832
1642605327.648,6.836,43.945,-813.477,36.621,32.715
1642605327.652,-0.977,46.387,-833.496,36.621,46.875
1642605327.656,-19.043,45.410,-913.574,16.113,37.109
1642605327.660,-4.883,48.340,-775.879,21.484,54.199
1642605327.664,12.695,46.387,-669.434,49.316,59.570
1642605327.668,9.766,44.922,-731.445,52.246,68.359
1642605327.671,-1.953,45.898,-720.703,35.645,74.707
1642605327.675,-5.859,42.969,-601.562,19.531,100.098
1642605327.679,2.930,40.039,-651.855,31.250,93.750
1642605327.683,4.883,37.598,-702.637,41.016,64.453
1642605327.687,0.488,41.504,-669.922,26.855,82.031
1642605327.691,-0.977,42.480,-767.090,16.113,102.051
1642605327.694,12.207,42.480,-847.656,24.414,103.027
1642605327.698,24.414,44.434,-933.594,40.039,46.387
1642605327.702,16.602,46.387,-799.316,27.832,83.496
1642605327.706,8.789,43.945,-610.352,13.672,106.445
1642605327.710,16.602,38.086,-637.695,23.926,50.293
1642605327.714,23.926,39.551,-724.609,33.203,27.832
1642605327.716,18.066,43.457,-715.332,35.156,25.391
1642605327.720,15.137,47.363,-611.328,22.949,64.453
1642605327.724,17.578,41.992,-822.754,13.184,-6.348
1642605327.728,23.926,36.133,-840.820,22.461,-10.742
1642605327.732,18.066,36.621,-582.520,26.367,26.367
1642605327.736,2.441,32.715,-666.504,10.742,-19.043
1642605327.739,6.836,31.250,-892.090,-1.953,-45.410
1642605327.743,28.320,35.645,-890.137,10.254,-45.410
1642605327.747,35.156,39.062,-629.883,21.484,4.883
1642605327.751,25.879,40.527,-521.973,16.113,25.879
1642605327.755,13.184,40.039,-651.367,-1.465,-6.348
1642605327.759,21.484,38.574,-676.270,6.348,17.090
1642605327.761,36.621,38.086,-552.246,32.227,82.031
1642605327.765,28.809,36.133,-583.008,30.762,52.246
1642605327.769,9.277,32.715,-749.023,10.742,66.895
1642605327.773,17.578,35.645,-750.977,9.766,87.402
1642605327.777,34.668,41.504,-560.547,29.785,68.359
1642605327.781,29.297,44.922,-625.977,37.598,128.418
1642605327.784,16.113,40.039,-933.594,21.973,95.703
1642605327.788,11.719,34.180,-893.066,5.859,49.316
1642605327.792,26.855,36.621,-580.566,24.414,51.758
1642605327.796,24.414,35.645,-595.703,40.527,40.527
1642605327.800,5.371,37.109,-613.770,25.391,53.223
1642605327.804,0.977,36.621,-515.625,9.277,76.660
1642605327.821,17.090,37.598,-524.414,15.625,54.688
1642605327.825,23.926,39.551,-604.492,36.133,6.836
1642605327.829,6.836,37.109,-596.191,26.367,16.602
1642605327.833,0.488,34.668,-556.641,6.836,22.949
1642605327.837,7.324,31.738,-635.742,8.789,9.277
1642605327.841,10.742,29.785,-751.953,21.484,4.395
1642605327.844,0.000,32.715,-818.848,16.602,0.977
1642605327.848,-12.695,38.086,-738.281,0.977,13.184
1642605327.852,-4.883,39.551,-549.316,7.812,50.781
1642605327.856,9.277,34.668,-738.281,21.973,-6.348
1642605327.860,5.371,34.180,-910.156,23.438,-44.434
1642605327.864,-1.953,35.156,-585.449,13.184,56.152
1642605327.865,-0.977,31.738,-528.809,5.859,81.543
1642605327.869,8.789,31.250,-645.996,15.137,51.758
1642605327.873,11.719,32.227,-549.805,21.973,61.523
1642605327.877,2.930,36.133,-458.008,11.719,58.105
1642605327.881,0.977,36.133,-554.688,2.441,11.230
1642605327.885,11.230,32.715,-728.027,10.742,4.883
1642605327.888,20.020,33.691,-759.277,24.414,3.418
1642605327.892,11.719,40.527,-563.477,9.277,28.809
1642605327.896,-4.883,41.992,-661.621,-10.254,42.480
1642605327.900,0.000,37.598,-989.746,-1.465,-50.781
1642605327.904,22.461,40.039,-830.566,17.578,-56.152
1642605327.908,16.602,37.109,-465.820,20.996,7.812
1642605327.910,2.441,32.715,-554.199,-1.953,4.395
1642605327.914,15.137,36.621,-663.574,-6.348,-17.578
1642605327.918,27.832,37.598,-533.203,14.160,12.695
1642605327.922,29.297,40.527,-486.816,17.578,57.129
1642605327.926,20.508,42.480,-621.094,0.488,9.277
1642605327.930,16.602,37.109,-767.090,-10.742,-14.160
1642605327.933,30.273,34.180,-716.797,5.859,-3.418
1642605327.937,34.668,33.203,-563.477,27.344,0.977
1642605327.941,14.160,31.250,-781.738,17.090,-29.785
1642605327.945,3.418,31.738,-881.836,1.465,-21.973
1642605327.949,19.531,33.203,-575.684,8.301,22.461
1642605327.953,22.949,35.645,-651.855,30.762,0.488
1642605327.955,2.930,32.715,-760.742,27.832,8.301
1642605327.959,-6.348,32.227,-639.648,9.766,15.625
1642605327.963,1.465,29.297,-524.902,17.090,0.977
1642605327.967,8.301,22.949,-559.570,33.691,-21.973
1642605327.971,2.441,28.809,-613.281,35.645,-37.109
1642605327.975,-12.695,29.785,-682.617,17.578,-40.039
1642605327.978,-6.348,34.180,-630.859,7.812,-34.668
1642605327.982,9.766,35.645,-552.734,25.879,-14.160
1642605327.986,2.441,24.902,-869.629,31.738,-41.016
1642605327.990,-15.625,23.926,-756.836,13.672,-46.875
1642605327.994,-19.531,22.461,-508.301,5.859,5.859
1642605327.998,-1.953,21.973,-564.453,22.461,58.105
1642605328.001,7.324,26.855,-533.203,37.109,84.961
1642605328.005,-2.930,25.879,-556.641,25.391,51.758
1642605328.009,-5.371,26.367,-687.500,9.277,6.836
1642605328.013,6.348,26.855,-788.574,16.113,28.809
1642605328.017,15.625,27.344,-780.762,29.785,68.848
1642605328.021,1.953,27.344,-678.711,24.902,106.934
1642605328.024,-10.254,24.414,-749.512,11.230,116.699
1642605328.028,2.441,23.926,-894.531,14.160,29.785
1642605328.032,12.207,26.855,-857.910,26.855,0.977
1642605328.036,6.348,31.250,-542.480,32.227,81.055
1642605328.040,-5.371,25.391,-561.035,14.648,59.570
1642605328.044,-0.488,22.949,-682.617,5.371,11.719
1642605328.045,17.090,27.832,-619.141,22.949,-1.953
1642605328.049,20.020,32.227,-517.578,32.715,17.090
1642605328.053,6.836,36.133,-575.684,12.207,57.617
1642605328.057,2.930,36.133,-654.785,-9.766,58.594
1642605328.061,14.160,34.180,-659.180,-3.418,40.039
1642605328.065,17.090,32.715,-788.086,11.719,-0.488
1642605328.068,4.395,29.297,-832.520,0.977,-5.859
1642605328.072,-5.371,20.996,-966.797,-21.973,-16.113
1642605328.076,7.812,20.996,-893.555,-21.484,-4.883
1642605328.080,23.926,23.926,-672.363,-3.418,-5.371
1642605328.084,11.230,22.949,-713.379,2.930,4.883
1642605328.088,-5.859,25.391,-741.211,-15.625,75.195
1642605328.090,0.977,28.320,-673.828,-18.555,49.805
1642605328.094,18.066,30.762,-647.949,5.371,-19.043
1642605328.098,20.996,30.273,-709.961,11.719,-6.836
1642605328.102,8.301,30.762,-719.727,-4.883,22.949
1642605328.106,6.836,32.715,-630.371,-12.695,15.137
1642605328.110,26.367,29.785,-694.824,7.324,22.461
1642605328.113,33.691,25.879,-882.812,14.648,38.086
1642605328.117,20.508,27.832,-900.391,-5.859,60.547
1642605328.121,20.020,32.227,-602.539,-8.789,99.609
1642605328.125,35.156,32.227,-507.812,8.789,40.039
1642605328.129,41.016,27.832,-640.137,31.250,57.617
1642605328.133,27.344,29.297,-572.754,24.414,112.793
1642605328.135,16.602,32.715,-432.617,5.371,98.145
1642605328.139,27.344,30.273,-559.082,15.137,44.434
1642605328.143,38.086,32.227,-643.555,33.691,-4.395
1642605328.147,31.738,34.668,-559.570,33.203,-27.344
1642605328.151,21.484,33.203,-534.668,11.719,-39.062
1642605328.155,22.949,31.250,-690.430,10.742,-40.527
1642605328.158,34.180,28.320,-918.945,35.156,-29.785
1642605328.162,34.668,32.227,-779.785,36.621,22.461
1642605328.166,22.461,36.133,-537.598,23.926,116.211
1642605328.170,19.043,34.668,-587.891,16.113,142.090
1642605328.174,26.855,32.715,-776.855,20.508,33.691
1642605328.178,30.273,33.203,-690.918,34.180,29.785
1642605328.181,14.160,31.250,-586.426,21.484,75.684
1642605328.185,0.000,19.531,-737.793,5.859,31.250
1642605328.189,15.137,16.113,-736.328,10.742,34.180
1642605328.193,28.809,28.809,-518.555,24.414,60.059
1642605328.197,17.578,32.227,-511.719,24.902,35.156
1642605328.201,-1.953,32.227,-711.426,0.488,32.715
1642605328.204,0.977,32.715,-802.734,-0.488,37.109
1642605328.208,19.043,31.250,-640.137,14.648,43.945
1642605328.212,17.090,29.785,-476.562,17.578,59.570
1642605328.216,6.836,27.344,-728.516,6.348,36.133
1642605328.220,11.719,24.902,-849.609,-6.348,-14.160
1642605328.224,31.250,27.832,-545.898,10.742,25.391
1642605328.240,38.086,29.785,-554.688,22.949,36.621
1642605328.244,23.438,28.320,-715.332,12.695,27.832
1642605328.248,18.555,32.715,-676.758,8.301,46.387
1642605328.252,34.180,38.086,-531.738,21.484,42.480
1642605328.256,40.039,35.645,-604.492,35.156,53.223
1642605328.260,20.020,27.832,-913.574,16.113,26.367
1642605328.263,9.766,29.297,-926.758,-1.953,-17.578
1642605328.267,25.391,35.645,-694.824,8.301,0.488
1642605328.271,31.738,33.691,-688.477,21.973,24.902
1642605328.275,17.090,34.180,-724.121,15.137,-1.465
1642605328.279,-0.977,33.691,-641.113,-4.883,-1.465
1642605328.283,2.441,29.297,-610.352,-2.441,27.832
1642605328.286,9.277,26.855,-662.109,16.113,60.059
1642605328.290,2.930,23.926,-729.980,18.555,23.926
1642605328.294,-5.859,28.320,-687.500,9.766,-1.465
1642605328.298,-4.883,30.762,-742.676,9.277,26.855
1642605328.302,5.859,28.809,-939.941,31.250,-6.348
1642605328.306,0.977,29.297,-915.527,47.852,39.062
1642605328.309,-9.766,27.832,-823.730,33.691,45.898
1642605328.313,-6.348,26.855,-768.066,22.949,52.734
1642605328.317,5.371,25.879,-850.098,37.598,47.363
1642605328.321,18.555,28.809,-895.996,53.711,-12.207
1642605328.325,15.625,36.621,-638.672,45.410,29.785
1642605328.329,17.090,38.086,-626.465,33.203,18.555
1642605328.360,31.250,38.574,-716.797,43.457,28.809
1642605328.364,32.715,38.574,-654.785,53.223,49.316
1642605328.368,31.738,40.039,-570.312,50.781,49.805
1642605328.372,26.367,39.062,-639.160,35.156,59.082
1642605328.376,26.367,36.621,-760.254,24.902,62.500
1642605328.380,34.668,35.156,-792.969,34.668,65.918
1642605328.383,26.855,30.762,-845.703,31.738,32.227
1642605328.387,16.113,34.180,-854.004,25.879,7.812
1642605328.391,8.301,32.715,-977.051,19.043,-87.402
1642605328.395,7.812,34.668,-866.699,19.043,-60.059
1642605328.399,3.418,37.109,-591.797,20.020,58.105
1642605328.403,-12.207,28.320,-729.004,0.488,27.344
1642605328.375,-16.602,25.879,-805.176,-5.371,-9.766
1642605328.379,-1.953,28.809,-658.203,7.324,44.434
1642605328.383,5.859,32.715,-604.004,21.484,42.969
1642605328.387,-5.859,30.273,-698.730,11.719,60.547
1642605328.391,-12.695,26.367,-764.160,-7.812,82.031
1642605328.395,-0.488,26.855,-821.777,3.418,41.504
1642605328.398,17.090,29.785,-794.434,27.344,50.781
1642605328.402,9.766,30.273,-750.488,32.715,68.359
1642605328.406,-7.324,30.762,-759.766,5.859,16.113
1642605328.410,2.441,30.273,-733.887,-0.977,22.949
1642605328.414,18.066,30.273,-710.938,26.367,76.660
1642605328.418,16.602,28.809,-718.262,28.809,75.684
1642605328.421,3.906,27.832,-712.402,10.742,72.266
1642605328.425,1.953,26.855,-644.043,2.441,108.887
1642605328.429,20.020,25.879,-704.590,18.066,83.008
1642605328.433,25.391,23.926,-922.363,37.598,-3.418
1642605328.437,16.113,26.855,-921.387,23.926,0.977
1642605328.441,11.230,36.133,-827.637,14.648,57.129
1642605328.444,18.555,38.086,-854.980,25.879,70.312
1642605328.448,26.367,34.668,-941.895,34.180,13.672
1642605328.452,15.625,31.738,-774.902,31.250,40.527
1642605328.456,7.812,33.203,-599.609,16.113,62.500
1642605328.460,15.137,32.715,-768.555,21.484,29.785
1642605328.464,20.996,32.227,-779.785,38.086,60.547
1642605328.466,10.742,30.273,-721.680,35.156,49.316
1642605328.470,-0.977,30.273,-652.832,27.832,55.176
1642605328.474,2.441,29.297,-772.461,26.367,44.922
1642605328.478,17.578,26.855,-864.746,38.086,-7.812
1642605328.482,22.461,27.344,-590.820,42.969,4.395
1642605328.486,7.812,29.297,-661.621,33.691,43.457
1642605328.489,5.371,26.855,-916.504,25.391,21.484
1642605328.493,16.113,25.879,-872.559,36.621,5.859
1642605328.497,19.531,34.668,-628.906,53.711,29.785
1642605328.501,11.230,33.691,-568.848,44.434,45.410
1642605328.505,8.301,32.715,-663.574,27.344,49.805
1642605328.509,26.367,34.668,-669.434,32.715,37.598
1642605328.510,38.086,35.645,-508.301,54.688,62.500
1642605328.514,23.438,31.250,-495.605,44.434,87.402
1642605328.518,11.230,27.344,-691.406,15.137,62.988
1642605328.522,14.648,28.320,-705.078,13.184,39.551
1642605328.526,25.391,29.297,-587.891,24.414,59.082
1642605328.530,19.531,29.785,-706.543,25.879,32.227
1642605328.533,0.977,25.391,-946.289,7.812,-1.953
1642605328.537,9.277,27.832,-893.066,-3.418,20.020
1642605328.541,27.832,31.738,-645.996,12.695,51.270
1642605328.545,30.273,32.227,-678.223,27.832,46.387
1642605328.549,17.090,30.762,-739.746,10.254,11.230
1642605328.553,6.836,27.344,-643.066,-7.812,15.137
1642605328.586,20.508,27.344,-665.039,1.953,34.180
1642605328.590,28.320,29.785,-768.066,20.020,-3.906
1642605328.594,14.648,29.785,-769.043,14.648,-33.203
1642605328.598,7.324,29.785,-712.891,-4.883,-26.855
1642605328.602,22.461,27.832,-648.438,5.859,22.461
1642605328.606,29.297,22.949,-750.000,26.367,34.668
1642605328.609,17.578,20.996,-848.633,24.902,14.160
1642605328.613,11.230,25.391,-747.559,9.277,17.090
1642605328.617,16.113,26.367,-598.633,15.137,40.039
1642605328.621,29.297,26.855,-777.344,37.598,17.578
1642605328.625,29.785,32.715,-912.598,40.039,-9.277
1642605328.629,20.020,41.992,-638.184,30.273,16.113
1642605328.615,18.555,40.039,-617.676,19.531,7.812
1642605328.619,31.250,34.668,-701.660,31.250,17.090
1642605328.623,33.203,36.133,-583.008,45.898,60.547
1642605328.627,20.996,33.203,-532.715,24.902,33.203
1642605328.631,20.508,30.273,-659.180,13.672,-6.348
1642605328.635,27.832,28.320,-735.352,27.344,29.297
1642605328.638,36.621,32.227,-656.250,41.016,65.918
1642605328.642,32.715,39.551,-534.668,29.785,53.711
1642605328.646,6.348,37.598,-675.781,8.301,11.719
1642605328.650,14.160,35.645,-739.258,13.672,54.688
1642605328.654,33.203,36.621,-545.410,24.902,70.312
1642605328.658,21.484,38.086,-446.289,27.832,36.133
1642605328.660,6.348,39.551,-582.031,13.184,43.457
1642605328.664,4.395,30.762,-960.449,-3.418,-16.602
1642605328.668,19.531,31.738,-816.895,15.137,-15.625
1642605328.672,14.160,37.598,-461.914,31.738,45.898
1642605328.676,0.977,33.203,-509.766,21.484,24.414
1642605328.680,2.930,32.715,-680.664,7.324,12.695
1642605328.683,11.230,34.180,-674.805,16.602,21.484
1642605328.687,10.742,34.180,-566.406,33.691,16.602
1642605328.691,-0.488,31.250,-749.512,19.531,-20.020
1642605328.695,-9.766,30.762,-850.098,5.859,-2.930
1642605328.699,4.395,38.086,-525.391,15.137,37.598
1642605328.703,21.484,38.086,-491.211,28.809,28.809
1642605328.705,0.488,32.715,-771.484,26.367,44.922
1642605328.709,-4.395,36.133,-767.090,6.348,34.180
1642605328.713,15.625,39.551,-461.426,12.207,91.797
1642605328.717,20.508,34.180,-454.102,28.809,124.512
1642605328.721,9.277,34.180,-568.848,24.414,46.875
1642605328.725,-2.441,32.227,-653.320,11.719,23.926
1642605328.728,3.906,31.738,-696.777,9.277,44.434
1642605328.732,15.625,33.203,-652.344,31.250,62.012
1642605328.736,20.996,32.715,-841.309,31.250,20.996
1642605328.740,16.113,37.598,-731.445,6.348,10.254
1642605328.744,6.836,36.133,-508.789,-2.441,9.277
1642605328.748,16.602,35.645,-645.996,7.324,-2.441
1642605328.751,22.461,39.551,-604.004,19.531,41.992
1642605328.755,11.230,38.086,-492.676,5.371,15.625
1642605328.759,9.277,32.227,-605.469,-7.324,15.137
1642605328.763,16.602,27.344,-774.902,-0.977,30.273
1642605328.767,26.855,30.762,-703.613,12.695,62.500
1642605328.771,20.508,34.180,-608.398,15.625,84.473
1642605328.774,5.859,33.691,-699.707,-2.441,29.785
1642605328.778,17.578,37.109,-855.957,2.930,36.621
1642605328.782,36.133,45.898,-863.770,28.809,22.461
1642605328.786,33.203,54.199,-528.320,29.785,52.734
1642605328.790,14.648,49.316,-500.488,14.160,94.727
1642605328.794,13.672,41.992,-640.137,11.230,64.453
1642605328.795,30.762,42.480,-614.258,28.809,33.203
1642605328.799,32.715,45.410,-460.938,48.828,104.004
1642605328.803,17.578,47.852,-504.883,36.133,102.539
1642605328.807,16.113,50.781,-629.883,20.996,47.363
1642605328.811,30.273,50.781,-665.527,34.668,72.266
1642605328.815,31.738,47.852,-642.090,52.734,108.398
1642605328.818,13.672,47.363,-642.090,44.922,104.980
1642605328.822,-5.859,44.434,-937.012,17.090,43.945
1642605328.826,0.000,49.316,-857.910,12.695,45.410
1642605328.830,12.695,52.734,-505.371,25.391,99.121
1642605328.834,1.465,47.363,-513.184,22.949,105.469
1642605328.838,-10.254,45.898,-590.820,4.395,80.078
1642605328.840,-3.906,47.363,-507.812,1.953,48.340
1642605328.844,11.719,50.781,-428.223,27.344,53.223
1642605328.848,2.930,45.410,-527.344,31.738,90.820
1642605328.852,-13.672,41.504,-559.082,21.973,93.262
1642605328.856,-10.742,42.480,-532.227,21.973,52.246
1642605328.860,-1.465,39.551,-629.883,39.551,37.109
1642605328.863,-2.930,33.691,-792.969,54.199,30.273
1642605328.867,-16.113,34.180,-978.027,38.574,-27.832
1642605328.871,-13.672,41.016,-755.371,30.762,4.395
1642605328.875,9.766,43.457,-524.414,46.875,58.594
1642605328.879,22.461,42.969,-679.199,57.617,59.570
1642605328.883,8.301,44.922,-667.480,40.527,61.523
1642605328.886,6.348,46.875,-487.305,20.020,78.125
1642605328.890,19.043,44.434,-503.418,26.367,63.965
1642605328.894,27.344,44.922,-577.637,36.133,43.457
1642605328.898,21.973,46.875,-543.457,32.227,47.852
1642605328.902,8.789,44.434,-552.246,12.207,49.316
1642605328.906,10.254,39.551,-769.043,2.930,43.457
1642605328.909,20.508,38.574,-963.867,20.020,43.457
1642605328.913,14.648,41.504,-826.660,19.043,31.250
1642605328.917,0.488,41.504,-584.961,0.977,83.008
1642605328.921,0.000,40.039,-632.812,-10.254,99.121
1642605328.925,14.160,41.504,-762.695,3.418,76.172
1642605328.929,16.602,42.480,-681.641,20.020,54.688
1642605328.931,0.488,43.457,-561.523,6.836,35.645
1642605328.935,-9.766,37.598,-735.840,-11.230,62.012
1642605328.939,3.418,35.645,-849.121,-14.160,61.035
1642605328.943,12.695,33.691,-619.141,3.418,119.629
1642605328.947,-5.371,27.832,-526.367,4.395,114.258
1642605328.951,-21.973,24.414,-792.480,-19.531,62.988
1642605328.954,-5.859,24.414,-911.133,-13.184,76.172
1642605328.958,16.602,31.738,-632.324,2.930,59.570
1642605328.962,20.996,34.180,-487.305,7.324,83.496
1642605328.966,16.602,32.715,-543.945,-0.488,85.449
1642605328.970,24.414,32.227,-607.910,-2.930,64.941
1642605328.974,40.527,33.203,-503.906,20.020,100.586
1642605328.990,37.598,33.691,-519.043,20.508,85.938
1642605328.994,30.762,35.645,-698.242,0.488,41.504
1642605328.998,38.574,40.527,-679.688,-0.977,18.066
1642605329.002,50.293,41.016,-539.551,15.137,30.762
1642605329.006,48.828,37.109,-571.777,32.715,50.781
1642605329.010,36.621,32.715,-885.254,22.949,33.691
1642605329.013,32.715,33.691,-905.762,2.930,30.273
1642605329.017,42.969,36.621,-589.844,17.090,39.062
1642605329.021,48.340,37.109,-633.301,37.109,17.090
1642605329.025,38.574,38.574,-785.645,31.738,21.484
1642605329.029,28.320,39.062,-633.789,0.000,39.551
1642605329.033,32.227,40.039,-580.566,-3.906,46.387
1642605329.036,42.480,37.598,-664.062,22.461,6.348
1642605329.040,31.250,35.645,-680.176,21.973,-3.906
1642605329.044,12.695,37.109,-600.586,0.488,29.785
1642605329.048,13.184,39.062,-630.859,-10.742,31.250
1642605329.052,18.555,37.109,-823.242,4.395,-20.020
1642605329.056,18.066,34.668,-870.117,18.555,-48.828
1642605329.059,8.301,35.645,-790.039,7.812,-31.738
1642605329.063,9.277,38.086,-664.551,-3.418,-5.859
1642605329.067,19.531,34.180,-804.199,8.789,-46.387
1642605329.071,20.996,34.180,-859.863,30.762,-38.086
1642605329.075,11.230,39.062,-530.762,25.879,20.996
1642605329.079,0.977,33.203,-535.645,6.348,0.488
1642605329.080,15.625,32.227,-623.535,16.602,-22.461
1642605329.084,31.738,40.527,-584.961,38.086,-16.602
1642605329.088,21.484,41.504,-484.375,35.645,9.277
1642605329.092,7.812,35.645,-576.660,14.160,3.418
1642605329.096,11.719,32.227,-686.035,11.719,5.371
1642605329.100,21.973,31.250,-667.969,34.180,12.695
1642605329.103,15.625,28.809,-695.312,31.738,2.441
1642605329.107,1.465,25.391,-787.109,12.695,4.395
1642605329.111,-3.906,23.926,-987.793,5.859,-42.480
1642605329.115,10.742,32.227,-812.012,18.555,-9.277
1642605329.119,14.648,36.621,-510.254,28.809,16.602
1642605329.123,-6.348,27.832,-621.582,10.742,-20.020
1642605329.125,-12.207,26.367,-663.574,1.953,-22.461
1642605329.129,-2.441,28.809,-493.164,14.160,25.391
1642605329.133,1.465,29.297,-408.203,24.414,75.684
1642605329.137,-13.184,27.832,-624.512,15.625,32.227
1642605329.141,-18.066,28.809,-688.965,0.977,28.809
1642605329.145,-0.488,30.762,-682.129,12.207,20.020
1642605329.148,6.348,32.227,-733.398,39.062,20.020
1642605329.152,-8.789,31.738,-849.121,32.227,-5.371
1642605329.156,-20.508,32.227,-864.746,7.324,-31.738
1642605329.160,-10.254,33.691,-632.324,10.254,-20.508
1642605329.164,3.906,33.203,-568.848,34.668,-20.508
1642605329.168,2.441,28.809,-585.449,33.691,0.488
1642605329.171,-8.789,27.344,-583.496,12.207,16.113
1642605329.175,-13.184,32.715,-455.078,0.000,33.203
1642605329.179,-0.977,31.738,-481.934,13.184,27.832
1642605329.183,8.789,26.367,-607.422,34.668,28.809
1642605329.187,-1.953,24.414,-588.379,18.555,27.832
1642605329.191,-8.301,21.484,-667.480,7.324,14.160
1642605329.194,1.465,20.508,-808.105,17.578,21.484
1642605329.198,5.371,20.996,-930.664,26.855,-16.113
1642605329.202,-0.977,27.832,-771.973,23.438,-13.184
1642605329.206,-9.766,30.762,-545.410,7.812,49.805
1642605329.210,-8.301,23.926,-666.504,13.184,36.133
1642605329.214,0.000,22.949,-706.543,24.414,-23.438
1642605329.216,0.488,23.438,-707.520,21.973,-36.621
1642605329.220,-7.812,28.320,-598.633,13.672,19.531
1642605329.224,-6.836,26.855,-694.336,2.441,28.320
1642605329.228,4.883,26.367,-840.820,17.578,30.273
1642605329.232,5.371,32.715,-525.391,30.762,69.336
1642605329.236,-12.695,30.762,-636.230,13.184,53.223
1642605329.239,-13.672,25.879,-937.500,3.906,2.930
1642605329.243,4.883,23.926,-891.113,15.137,-9.277
1642605329.247,11.719,27.832,-604.980,29.297,20.508
1642605329.251,0.977,29.297,-515.137,18.555,5.371
1642605329.255,-0.977,30.762,-620.117,9.766,0.488
1642605329.259,17.578,35.156,-637.695,21.484,26.855
1642605329.260,28.320,37.109,-546.875,35.156,22.949
1642605329.264,15.137,34.668,-529.297,28.320,16.113
1642605329.268,5.859,31.250,-666.016,4.395,-12.207
1642605329.272,16.602,28.809,-725.098,4.883,24.902
1642605329.276,26.855,28.809,-630.859,27.344,75.684
1642605329.280,23.438,34.668,-723.145,30.273,27.832
1642605329.283,0.488,33.203,-963.867,6.836,-2.930
1642605329.287,3.906,30.762,-882.812,-6.836,9.766
1642605329.291,28.809,36.133,-651.367,20.508,8.789
1642605329.295,23.926,32.715,-714.844,38.574,-31.250
1642605329.299,6.348,29.297,-755.859,22.461,19.043
1642605329.303,12.695,34.668,-711.914,12.207,28.809
1642605329.320,30.762,30.762,-655.273,21.973,18.066
1642605329.324,33.691,24.902,-672.363,41.016,20.020
1642605329.328,20.996,30.762,-736.328,31.250,-5.371
1642605329.332,9.766,33.691,-656.738,15.625,49.805
1642605329.336,17.090,32.715,-545.898,32.715,115.234
1642605329.340,18.066,28.809,-734.375,46.387,45.898
1642605329.343,2.930,28.320,-899.414,39.062,32.715
1642605329.347,-3.418,34.668,-759.277,19.531,45.898
1642605329.351,8.301,41.016,-589.355,19.043,46.387
1642605329.355,20.020,40.039,-748.047,45.898,47.852
1642605329.359,15.137,37.109,-897.461,51.270,-14.648
1642605329.363,6.348,41.504,-644.531,33.691,-4.395
1642605329.366,7.812,41.992,-597.168,24.414,41.016
1642605329.370,15.625,37.598,-688.965,31.250,27.832
1642605329.374,10.254,37.109,-629.395,34.668,20.020
1642605329.378,-4.395,39.062,-563.965,21.484,0.000
1642605329.382,-1.465,37.109,-638.184,8.301,6.836
1642605329.386,14.648,33.203,-819.336,13.672,26.855
1642605329.389,23.438,37.109,-836.914,30.273,28.320
1642605329.393,13.672,41.016,-631.836,24.414,53.223
1642605329.397,6.836,37.598,-661.621,6.836,68.359
1642605329.401,23.926,33.203,-964.844,18.066,-4.395
1642605329.405,41.016,37.598,-820.801,40.527,15.625
1642605329.409,14.160,36.133,-504.883,19.043,56.152
1642605329.410,-11.719,29.785,-571.777,-17.578,19.043
1642605329.414,6.348,26.855,-556.152,-7.324,41.992
1642605329.418,32.715,29.297,-413.574,23.926,16.113
1642605329.422,31.250,31.738,-354.980,30.762,39.551
1642605329.426,9.766,25.879,-441.895,15.625,81.055
1642605329.430,12.695,23.438,-626.465,4.395,15.137
1642605329.433,34.180,29.785,-668.945,17.090,-6.836
1642605329.437,33.691,30.273,-540.039,37.598,46.387
1642605329.441,14.648,24.414,-726.074,24.902,12.207
1642605329.445,12.695,24.414,-907.715,6.348,-37.598
1642605329.449,30.762,31.250,-581.543,12.695,-10.254
1642605329.453,35.156,34.180,-562.500,33.203,-20.020
1642605329.456,20.020,31.738,-732.910,31.250,-4.395
1642605329.460,10.254,31.250,-651.855,11.719,31.738
1642605329.464,20.020,34.180,-495.605,26.855,48.828
1642605329.468,30.762,29.785,-546.387,45.898,3.906
1642605329.472,21.484,25.879,-663.574,39.062,-36.133
1642605329.476,4.395,24.414,-672.852,22.461,14.648
1642605329.479,15.137,27.344,-670.410,12.695,12.695
1642605329.483,32.227,32.715,-628.418,32.715,-7.812
1642605329.487,23.438,26.367,-873.047,30.762,-36.133
1642605329.491,9.277,27.832,-786.621,5.371,-30.273
1642605329.495,16.602,33.203,-551.270,9.277,2.441
1642605329.499,30.762,29.785,-601.562,29.297,1.953
1642605329.501,29.297,27.344,-592.773,38.086,-2.441
1642605329.505,14.648,25.879,-490.234,17.578,26.855
1642605329.509,7.812,24.902,-579.590,0.977,2.930
1642605329.513,13.672,22.949,-723.145,14.160,-35.156
1642605329.517,15.625,20.020,-660.156,27.344,11.230
1642605329.521,11.230,22.949,-657.227,26.367,47.852
1642605329.524,0.000,24.902,-792.969,7.812,2.441
1642605329.528,3.906,23.438,-904.297,7.812,-34.668
1642605329.532,18.555,29.297,-927.734,31.738,-22.461
1642605329.536,13.184,37.109,-598.633,35.156,26.367
1642605329.540,0.000,37.598,-458.984,15.625,37.109
1642605329.544,1.953,37.598,-608.398,4.395,27.344
1642605329.545,6.836,32.715,-532.227,22.949,46.387
1642605329.549,0.488,29.785,-479.492,34.180,14.160
1642605329.553,-7.324,33.203,-571.289,17.090,24.414
1642605329.557,-5.859,31.738,-615.723,5.371,28.809
1642605329.561,9.766,32.227,-573.730,17.090,-27.344
1642605329.565,12.695,33.691,-630.371,24.902,-35.645
1642605329.568,-4.883,30.762,-799.316,9.766,-27.344
1642605329.572,-7.324,24.414,-968.750,-10.742,-19.531
1642605329.576,12.207,25.879,-856.445,-1.953,15.137
1642605329.580,25.391,26.855,-568.359,19.531,39.551
1642605329.584,15.625,20.996,-590.820,13.672,27.344
1642605329.588,6.348,21.484,-627.930,2.441,35.645
1642605329.605,21.973,27.832,-536.621,11.230,33.203
1642605329.609,39.062,31.250,-493.652,30.762,-3.906
1642605329.613,28.809,27.832,-578.613,26.855,-23.438
1642605329.617,15.137,25.879,-606.445,10.742,-0.488
1642605329.621,19.043,23.438,-524.414,3.418,9.277
1642605329.625,27.832,25.391,-688.477,19.043,26.855
1642605329.628,25.391,23.926,-877.930,31.250,65.918
1642605329.632,14.648,17.578,-961.426,13.672,43.457
1642605329.636,22.949,27.344,-802.246,10.254,52.734
1642605329.640,33.203,37.109,-562.988,18.555,12.695
1642605329.644,22.949,33.691,-580.566,11.719,-22.461
1642605329.648,17.578,31.738,-525.391,5.859,43.945
1642605329.636,26.367,33.203,-352.051,6.836,42.969
1642605329.640,31.250,30.762,-392.090,14.648,-29.785
1642605329.644,36.621,28.809,-557.617,33.691,-50.293
1642605329.648,32.715,35.156,-515.625,37.109,13.672
1642605329.652,16.602,35.156,-499.023,17.090,17.090
1642605329.656,13.184,30.762,-705.078,15.625,5.371
1642605329.659,20.020,31.738,-758.789,30.762,19.531
1642605329.663,14.160,33.691,-536.621,32.715,35.156
1642605329.667,-0.488,38.086,-470.703,17.578,27.832
1642605329.671,4.395,35.645,-663.086,12.695,11.230
1642605329.675,20.508,30.762,-944.824,27.832,-9.277
1642605329.679,21.973,38.086,-773.438,39.062,12.207
1642605329.681,6.836,41.504,-506.348,29.297,81.055
1642605329.685,0.977,38.086,-714.355,17.090,49.805
1642605329.689,13.184,37.109,-754.395,26.855,4.395
1642605329.693,23.438,37.109,-483.887,41.504,62.012
1642605329.697,14.648,35.645,-450.684,36.621,89.355
1642605329.701,1.465,31.738,-764.160,17.090,41.992
1642605329.704,12.695,35.645,-890.137,22.949,32.227
1642605329.708,28.809,42.480,-570.312,35.645,109.375
1642605329.712,17.090,37.598,-484.863,22.949,109.375
1642605329.716,0.977,31.738,-666.016,13.672,13.184
1642605329.720,7.812,33.203,-686.523,15.625,-6.348
1642605329.724,15.625,34.668,-543.457,30.273,66.406
1642605329.740,9.277,36.621,-497.559,29.785,67.383
1642605329.744,-7.812,36.621,-659.668,4.395,-4.883
1642605329.748,-5.859,39.062,-668.945,2.930,22.461
1642605329.752,7.324,41.016,-526.367,23.926,79.590
1642605329.756,7.324,39.551,-541.016,35.645,77.637
1642605329.760,-5.859,28.809,-856.934,21.484,9.766
1642605329.763,-13.184,27.832,-911.133,5.371,-15.625
1642605329.767,7.324,33.691,-624.023,23.438,49.805
1642605329.771,20.508,33.691,-646.484,45.898,61.523
1642605329.775,7.324,34.668,-702.637,37.598,37.109
1642605329.779,1.953,35.156,-586.426,9.766,61.035
1642605329.783,14.648,32.715,-613.770,6.836,33.691
1642605329.786,24.414,30.762,-704.590,29.297,-12.207
1642605329.790,22.461,33.691,-687.500,29.785,-13.184
1642605329.794,14.160,36.621,-611.328,10.742,4.883
1642605329.798,12.695,36.133,-613.281,-2.930,24.414
1642605329.802,22.461,30.762,-757.324,5.371,0.977
1642605329.806,20.020,29.785,-897.461,15.137,5.371
1642605329.809,0.488,31.738,-925.293,-4.883,36.133
1642605329.813,0.977,34.668,-846.680,-16.113,44.434
1642605329.817,15.137,31.738,-881.836,-5.371,-22.461
1642605329.821,15.137,31.250,-948.242,6.836,-7.324
1642605329.825,10.742,34.668,-724.121,0.488,89.844
1642605329.829,20.996,35.156,-653.320,2.930,76.660
1642605329.830,25.879,36.133,-745.117,6.348,57.617
1642605329.834,2.441,37.109,-673.340,-10.742,57.129
1642605329.838,-12.207,40.527,-609.375,-20.996,60.059
1642605329.842,-19.531,36.133,-738.281,-35.156,49.316
1642605329.846,-16.113,31.738,-861.816,-34.668,-11.230
1642605329.850,-6.348,28.320,-872.070,-16.113,-20.996
1642605329.853,-13.184,27.832,-932.129,-20.020,-15.137
1642605329.857,-22.461,31.250,-961.426,-34.180,-61.035
1642605329.861,-15.625,29.785,-983.887,-37.109,-63.965
1642605329.865,3.906,31.250,-885.742,-27.344,-50.293
1642605329.869,13.672,34.180,-667.969,-7.812,-27.344
1642605329.873,3.418,31.738,-716.797,-13.672,-0.977
1642605329.875,3.418,32.715,-810.547,-26.367,-10.254
1642605329.879,15.137,34.180,-715.332,-6.348,36.133
1642605329.883,20.508,34.668,-635.742,12.207,57.129
1642605329.887,13.184,35.156,-724.121,2.930,18.066
1642605329.891,5.371,32.227,-787.598,-10.254,23.926
1642605329.895,14.160,29.297,-868.652,-5.859,-11.230
1642605329.898,29.297,36.621,-815.918,17.578,-20.996
1642605329.902,19.531,35.645,-813.965,18.555,-27.832
1642605329.906,0.977,32.227,-919.922,-8.789,-72.754
1642605329.910,15.137,38.574,-757.324,-1.953,-36.621
1642605329.914,30.762,37.598,-715.332,23.926,0.000
1642605329.918,20.996,32.227,-725.098,22.461,3.906
1642605329.921,-4.395,28.809,-649.902,3.418,8.301
1642605329.925,-10.254,29.297,-520.996,-4.883,55.176
1642605329.929,5.859,29.785,-570.801,8.301,46.387
1642605329.933,3.418,28.809,-748.047,12.207,-27.344
1642605329.937,-8.301,35.645,-652.832,-3.906,-24.414
1642605329.941,-11.230,39.062,-623.047,-15.137,11.230
1642605329.944,2.930,36.621,-716.797,-0.977,35.156
1642605329.948,17.090,30.762,-875.000,10.742,-28.809
1642605329.952,5.371,30.273,-799.805,5.371,-48.828
1642605329.956,-13.184,36.133,-585.449,-3.418,7.812
1642605329.960,-3.906,35.156,-709.961,1.953,-16.602
1642605329.964,11.230,36.133,-693.848,20.508,13.184
1642605329.966,0.000,36.133,-634.277,19.043,63.965
1642605329.970,-12.207,35.156,-596.191,1.465,77.148
1642605329.974,-5.371,31.250,-721.680,0.977,31.250
1642605329.978,4.395,27.832,-809.082,19.043,-18.066
1642605329.982,7.812,29.297,-607.910,22.461,8.301
1642605329.986,0.977,29.297,-668.457,7.812,71.289
1642605329.989,-8.789,26.367,-887.207,7.812,58.105
1642605329.993,0.977,26.367,-901.367,20.508,8.789
1642605329.997,4.883,28.809,-612.793,30.762,62.012
1642605330.001,-14.160,27.344,-545.898,15.625,36.621
1642605330.005,-13.672,26.367,-696.289,-0.977,-25.879
1642605330.009,1.465,25.879,-628.418,20.020,31.250
1642605330.025,3.418,30.273,-494.629,39.062,85.938
1642605330.029,-3.906,33.203,-577.148,34.668,62.500
1642605330.033,-8.789,31.738,-702.148,12.695,15.625
1642605330.037,0.488,33.203,-703.125,16.602,28.809
1642605330.041,16.602,34.180,-603.516,47.363,26.855
1642605330.045,11.230,31.250,-708.008,46.875,7.324
1642605330.048,-12.695,25.391,-961.914,25.391,-23.438
1642605330.052,-11.719,23.438,-899.902,11.230,-61.523
1642605330.056,10.254,27.344,-567.871,28.320,26.367
1642605330.060,15.137,32.715,-518.066,46.875,43.457
1642605330.064,-0.488,33.203,-590.820,26.855,37.109
1642605330.068,-0.977,30.273,-525.391,9.277,46.875
1642605330.071,17.578,29.297,-527.832,13.672,0.488
1642605330.075,20.996,26.367,-614.746,26.855,-1.953
1642605330.079,6.348,24.414,-667.969,25.391,30.762
1642605330.083,-0.488,27.344,-654.785,11.719,5.859
1642605330.087,9.766,27.832,-625.488,28.809,-18.555
1642605330.091,10.254,22.461,-767.578,42.969,-10.254
1642605330.094,-5.859,18.066,-980.957,35.645,-25.391
1642605330.098,-16.602,28.320,-816.895,22.461,19.531
1642605330.102,-8.789,34.180,-615.234,20.508,59.570
1642605330.106,4.883,26.855,-791.992,41.504,-0.488
1642605330.110,-1.465,25.391,-967.285,37.109,-3.418
1642605330.114,-3.418,33.203,-741.699,20.996,77.148
1642605330.116,5.859,35.645,-633.301,22.949,65.918
1642605330.120,19.043,35.645,-723.145,42.969,37.598
1642605330.124,21.973,40.039,-647.461,51.758,59.082
1642605330.128,2.930,37.109,-545.410,31.250,78.613
1642605330.132,4.395,31.250,-604.492,18.555,44.434
1642605330.136,27.344,36.133,-743.164,34.180,51.270
1642605330.139,32.227,38.574,-786.133,50.293,57.129
1642605330.143,18.555,40.527,-679.199,42.969,70.312
1642605330.147,10.742,40.039,-664.062,22.461,76.660
1642605330.151,19.531,33.203,-939.941,25.391,1.953
1642605330.155,25.879,32.715,-871.094,37.109,17.578
1642605330.159,14.160,36.621,-645.508,28.809,19.531
1642605330.160,6.348,34.668,-718.262,9.766,-29.297
1642605330.164,15.625,28.320,-708.008,2.930,2.930
1642605330.168,24.902,31.250,-611.816,15.137,-1.465
1642605330.172,22.461,35.645,-570.312,22.949,-21.484
1642605330.176,5.371,31.738,-641.602,9.766,3.418
1642605330.180,5.371,26.855,-818.848,-2.930,-18.066
1642605330.183,20.996,26.855,-839.355,8.789,-2.441
1642605330.187,17.090,26.855,-673.828,20.508,39.062
1642605330.191,-4.883,20.996,-793.457,0.977,11.230
1642605330.195,-11.719,23.926,-899.414,-14.160,0.977
1642605330.199,5.859,28.809,-602.051,2.441,41.992
1642605330.203,9.277,20.508,-588.867,19.531,23.438
1642605330.205,-1.953,19.531,-782.715,13.672,27.832
1642605330.209,-3.906,24.902,-764.648,0.000,10.254
1642605330.213,5.859,25.391,-631.348,7.812,-8.789
1642605330.217,12.207,26.367,-629.395,24.414,26.367
1642605330.221,6.348,31.738,-676.758,21.484,34.180
1642605330.225,-1.953,29.785,-781.738,5.859,59.570
1642605330.228,0.488,26.367,-829.102,-0.977,57.617
1642605330.232,17.090,32.715,-788.574,20.996,30.273
1642605330.236,16.113,30.762,-947.754,26.367,1.953
1642605330.240,0.488,32.227,-845.215,3.906,-9.766
1642605330.244,4.883,36.133,-601.074,7.324,62.500
1642605330.248,27.832,34.180,-705.566,26.367,55.176
1642605330.251,36.621,37.598,-741.211,38.574,6.348
1642605330.255,22.461,41.992,-586.426,29.297,65.430
1642605330.259,19.531,39.062,-660.156,18.066,74.707
1642605330.263,31.738,35.156,-851.562,25.879,-5.371
1642605330.267,29.785,35.156,-862.793,29.785,-32.715
1642605330.271,2.441,32.715,-791.504,22.949,10.254
1642605330.274,-6.836,32.227,-704.102,5.371,23.438
1642605330.278,8.301,28.320,-794.434,6.348,-29.785
1642605330.282,16.602,28.320,-899.902,23.438,-17.090
1642605330.286,12.207,38.086,-609.375,21.973,18.555
1642605330.290,5.371,41.016,-524.902,6.836,13.672
1642605330.294,10.742,33.691,-670.898,-2.441,7.812
1642605330.295,20.996,28.809,-689.941,8.301,-13.184
1642605330.299,15.625,31.250,-532.715,23.926,-19.043
1642605330.303,0.977,35.645,-534.668,13.184,35.645
1642605330.307,0.977,39.062,-703.125,-0.488,-5.859
1642605330.311,18.066,40.039,-623.047,9.766,-40.039
1642605330.315,21.484,38.086,-647.461,27.832,-14.160
1642605330.318,3.906,33.203,-761.230,20.020,16.602
1642605330.322,-1.953,27.344,-909.668,-0.488,31.738
1642605330.326,18.066,28.809,-891.113,8.301,11.719
1642605330.330,32.227,33.203,-526.855,22.949,44.434
1642605330.334,22.949,34.180,-549.316,15.625,46.387
1642605330.338,15.137,37.109,-666.504,3.418,32.715
1642605330.340,20.996,42.969,-520.020,9.277,83.008
1642605330.344,34.180,42.480,-499.512,25.391,96.191
1642605330.348,27.344,34.668,-688.477,15.137,29.785
1642605330.352,15.137,36.133,-666.992,0.000,11.719
1642605330.356,20.996,36.133,-559.570,-0.977,20.508
1642605330.360,27.344,32.715,-654.297,18.066,-8.789
1642605330.363,23.926,34.668,-824.707,28.809,1.953
1642605330.367,9.277,36.133,-939.941,1.465,19.043
1642605330.371,5.859,37.109,-776.855,-10.742,-19.043
1642605330.375,14.648,37.109,-588.867,1.465,-54.688
1642605330.379,11.719,34.668,-647.461,7.812,-25.879
1642605330.383,-2.930,33.691,-648.926,-1.465,0.488
1642605330.386,-2.930,35.645,-520.996,-13.672,26.855
1642605330.390,13.184,37.109,-496.094,4.883,49.805
1642605330.394,20.508,38.574,-561.523,28.320,13.184
1642605330.398,5.371,36.133,-596.680,21.484,-39.062
1642605330.402,-4.883,32.227,-595.215,9.766,-59.082
1642605330.406,7.812,32.715,-745.605,15.137,-50.293
1642605330.409,19.043,32.227,-939.453,28.809,-32.227
1642605330.413,16.113,36.621,-775.879,29.297,-41.992
1642605330.417,2.930,41.016,-524.414,20.020,7.324
1642605330.421,5.371,40.039,-623.047,17.578,-7.324
1642605330.425,20.020,35.645,-756.836,25.879,-62.500
1642605330.429,20.996,35.645,-601.562,35.645,-23.926
1642605330.440,6.836,38.086,-464.355,23.926,-4.395
1642605330.444,4.883,31.738,-651.855,5.859,-41.992
1642605330.448,17.578,30.762,-731.445,12.207,-84.961
1642605330.452,21.484,35.645,-518.066,23.926,-69.824
1642605330.456,9.766,37.598,-488.281,21.973,-96.680
1642605330.460,0.977,34.668,-774.414,5.371,-111.328
1642605330.463,9.277,35.645,-933.105,-0.977,-70.312
1642605330.467,19.043,36.621,-655.273,16.113,-63.477
1642605330.471,6.348,33.203,-502.930,12.207,-69.824
1642605330.475,-7.812,33.203,-687.012,-4.883,-62.012
1642605330.479,0.488,34.180,-716.309,-1.953,-70.312
1642605330.483,12.207,36.133,-575.684,13.184,-71.777
1642605330.490,8.789,36.133,-616.699,14.648,-85.938
1642605330.494,-6.836,34.180,-735.840,-1.953,-95.215
1642605330.498,-9.766,38.086,-702.637,-10.742,-52.734
1642605330.502,5.371,41.504,-541.992,2.930,-8.789
1642605330.506,8.301,38.574,-536.621,16.113,-18.555
1642605330.510,-7.812,31.250,-798.828,-2.930,-63.965
1642605330.513,-13.184,28.320,-889.160,-23.926,-66.895
1642605330.517,5.859,30.273,-599.121,-1.465,-17.578
1642605330.521,21.973,30.762,-566.406,28.809,-11.719
1642605330.525,7.812,31.738,-872.070,20.508,-60.547
1642605330.529,-9.766,35.645,-750.977,-10.742,-54.199
1642605330.533,0.977,31.738,-559.570,-9.766,-30.762
1642605330.536,16.602,23.926,-699.219,12.695,-81.055
1642605330.540,9.277,25.879,-695.312,15.625,-78.613
1642605330.544,-4.395,31.250,-605.957,-2.441,-4.883
1642605330.548,1.465,32.227,-617.188,-17.578,-5.371
1642605330.552,18.066,31.738,-783.203,2.441,-10.742
1642605330.556,19.043,32.227,-897.461,16.113,-6.348
1642605330.559,15.625,32.715,-765.625,0.977,48.828
1642605330.563,21.973,33.691,-711.914,-0.977,40.039
1642605330.567,33.691,37.109,-713.867,7.324,-32.715
1642605330.571,31.250,36.133,-596.680,14.160,-15.625
1642605330.575,9.277,32.227,-491.211,10.254,19.531
1642605330.579,1.465,29.785,-588.379,-2.441,25.879
1642605330.580,8.301,28.320,-837.891,10.254,-50.781
1642605330.584,15.137,32.227,-819.824,27.832,-28.320
1642605330.588,10.742,35.156,-506.836,25.391,69.824
1642605330.592,1.465,33.203,-545.898,12.207,60.059
1642605330.596,11.230,30.762,-723.145,12.207,21.484
1642605330.600,23.926,33.691,-762.207,34.668,16.602
1642605330.603,18.555,35.156,-726.562,31.250,41.016
1642605330.607,0.977,30.762,-771.484,3.906,8.301
1642605330.611,-1.953,25.879,-968.262,1.465,-101.074
1642605330.615,14.160,28.809,-862.793,13.184,-45.898
1642605330.619,21.484,35.645,-575.684,20.020,15.137
1642605330.623,12.207,32.227,-680.176,3.906,-57.129
1642605330.625,7.812,30.762,-788.574,-8.301,-62.012
1642605330.629,14.648,31.250,-639.160,4.883,-26.855
1642605330.633,18.555,33.203,-547.852,23.438,4.883
1642605330.637,5.371,35.156,-642.578,18.066,12.695
1642605330.641,-3.906,32.715,-643.066,-0.977,25.879
1642605330.645,7.324,29.297,-654.785,7.812,5.859
1642605330.648,15.137,21.973,-707.520,25.391,-17.090
1642605330.652,3.418,21.973,-812.500,22.949,-0.977
1642605330.656,-7.324,28.320,-904.785,5.859,-59.082
1642605330.660,2.441,28.809,-668.457,4.395,-51.270
1642605330.664,10.254,27.344,-618.652,32.715,-45.898
1642605330.668,0.000,29.785,-762.695,37.109,-61.035
1642605330.670,-12.695,37.109,-725.586,18.555,-14.648
1642605330.674,-7.812,41.992,-558.105,17.578,14.160
1642605330.678,3.418,37.109,-583.496,29.785,20.020
1642605330.682,2.930,30.273,-681.152,37.109,20.020
1642605330.686,-12.207,28.320,-650.391,19.531,-8.789
1642605330.690,-11.230,33.203,-747.070,2.441,-14.648
1642605330.693,5.371,32.227,-906.250,10.742,-61.523
1642605330.697,8.789,27.344,-962.402,17.578,-66.895
1642605330.701,3.906,31.738,-827.148,5.859,-49.316
1642605330.705,7.812,39.062,-677.734,-10.254,-46.875
1642605330.709,17.090,37.598,-749.512,-8.301,2.441
1642605330.713,25.391,35.156,-728.027,7.812,12.207
1642605330.716,20.020,31.738,-744.141,-0.488,9.277
1642605330.720,11.719,31.250,-831.055,-20.996,-6.348
1642605330.724,13.184,31.250,-847.168,-16.602,-20.996
1642605330.728,30.762,29.785,-869.141,1.465,-16.602
1642605330.732,34.668,31.738,-690.918,4.883,-13.672
1642605330.736,12.207,27.344,-764.648,-12.695,-36.621
1642605330.739,12.695,24.902,-944.824,-20.996,-24.414
1642605330.743,35.156,31.738,-936.035,-3.906,-53.711
1642605330.747,38.086,38.086,-650.391,10.254,-51.270
1642605330.751,21.484,36.621,-493.164,-7.812,9.277
1642605330.755,17.090,34.180,-649.414,-21.484,16.602
1642605330.759,34.180,33.203,-640.137,-0.977,-5.371
1642605330.760,42.480,31.738,-490.723,11.719,-21.484
1642605330.764,29.785,31.738,-506.348,7.812,-38.086
1642605330.768,18.066,32.227,-617.188,-3.418,-61.523
1642605330.772,24.414,30.762,-638.184,-5.371,-37.598
1642605330.776,41.504,34.668,-570.312,16.113,-4.883
1642605330.780,32.227,35.156,-651.855,20.508,-32.227
1642605330.783,9.766,27.344,-918.945,-0.488,-74.707
1642605330.787,16.113,30.762,-896.484,-10.742,-104.004
1642605330.791,33.203,38.086,-597.656,8.789,-65.918
1642605330.795,30.273,34.668,-614.258,20.020,-48.340
1642605330.799,23.438,31.738,-653.320,3.906,-22.949
1642605330.803,27.832,32.715,-532.227,0.488,2.441
1642605330.820,38.574,34.180,-519.043,9.277,35.156
1642605330.824,45.898,39.062,-603.027,26.367,19.531
1642605330.828,33.691,39.062,-684.082,26.367,-17.090
1642605330.832,19.043,35.645,-617.676,2.930,11.719
1642605330.836,30.762,35.156,-537.109,14.160,39.062
1642605330.840,45.898,31.250,-756.348,29.785,26.855
1642605330.843,16.113,32.227,-931.152,17.578,9.766
1642605330.847,-6.836,37.598,-829.102,7.812,-4.395
1642605330.851,22.461,39.551,-623.535,12.695,-5.371
1642605330.855,52.734,36.621,-723.145,34.668,-18.555
1642605330.859,39.551,36.621,-854.492,26.855,-30.273
1642605330.863,10.742,36.133,-572.266,8.301,-35.156
1642605330.865,13.184,35.156,-552.246,14.648,-84.961
1642605330.869,38.086,33.203,-596.680,30.273,-35.645
1642605330.873,31.738,29.297,-574.219,33.203,-42.969
1642605330.877,6.836,30.762,-589.844,6.836,-67.383
1642605330.881,3.906,28.809,-626.953,-0.977,-45.410
1642605330.885,17.578,28.320,-755.859,22.949,-55.664
1642605330.888,22.461,26.367,-777.832,37.598,-15.625
1642605330.892,11.719,24.902,-693.848,24.902,-26.367
1642605330.896,7.324,35.156,-681.152,8.301,-73.242
1642605330.900,7.812,34.180,-935.059,6.348,-134.277
1642605330.904,20.020,33.203,-870.117,14.160,-133.301
1642605330.908,16.602,39.062,-600.586,15.625,-61.035
1642605330.910,-4.395,39.062,-702.637,-1.465,-41.016
1642605330.914,4.883,39.551,-751.465,-5.371,-38.574
1642605330.918,21.973,36.621,-653.320,15.137,-50.781
1642605330.922,12.207,33.203,-573.242,21.484,-23.438
1642605330.926,-7.324,27.344,-687.988,1.953,-13.184
1642605330.930,-3.418,27.832,-840.820,-0.977,-18.066
1642605330.933,13.184,33.203,-830.078,14.648,-6.348
1642605330.937,12.695,31.738,-729.004,26.367,-5.371
1642605330.941,-11.230,24.414,-804.688,16.602,-23.438
1642605330.945,-18.066,23.926,-920.410,0.488,-62.012
1642605330.949,1.465,30.273,-623.535,14.160,-5.859
1642605330.953,4.395,24.414,-578.613,31.250,30.273
1642605330.955,-13.672,18.555,-780.762,20.996,0.977
1642605330.959,-25.391,21.973,-685.547,1.465,-1.465
1642605330.963,-6.836,24.414,-526.367,7.324,-9.277
1642605330.967,7.812,25.879,-547.363,28.320,-36.133
1642605330.971,-7.324,26.855,-640.137,23.438,-53.223
1642605330.975,-24.902,24.902,-732.422,7.324,-48.340
1642605330.978,-22.461,27.832,-657.715,2.930,-24.902
1642605330.982,-9.277,27.832,-653.809,18.066,-45.898
1642605330.986,-5.371,25.391,-792.480,27.344,-78.613
1642605330.990,-12.695,28.320,-690.430,9.766,-9.277
1642605330.994,-19.531,27.344,-621.094,4.883,46.387
1642605330.998,-14.648,24.414,-849.609,19.043,-8.789
1642605331.000,-6.836,26.367,-886.719,26.855,5.371
1642605331.004,-18.066,29.297,-645.020,11.719,35.156
1642605331.008,-18.555,29.297,-712.402,3.906,25.391
1642605331.012,0.488,23.926,-912.109,26.367,33.691
1642605331.016,5.859,21.484,-966.797,37.598,28.809
1642605331.020,2.930,24.414,-905.273,22.461,39.551
1642605331.023,1.465,25.879,-809.570,7.324,38.574
1642605331.027,13.672,27.344,-882.812,17.578,-32.715
1642605331.031,22.461,25.391,-894.531,35.645,-35.156
1642605331.035,11.230,28.809,-590.332,35.645,46.387
1642605331.039,1.465,27.344,-526.367,18.555,-1.953
1642605331.043,11.230,25.391,-662.109,7.812,-64.453
1642605331.045,23.926,30.273,-636.719,23.926,-53.711
1642605331.049,18.555,32.715,-555.176,32.715,-21.973
1642605331.053,3.418,32.227,-567.871,9.277,-27.832
1642605331.057,7.324,33.691,-659.668,-2.441,-53.223
1642605331.061,22.461,37.598,-604.004,12.207,-11.230
1642605331.065,16.602,34.668,-691.406,16.113,-27.344
1642605331.068,2.930,32.715,-834.961,8.789,-75.195
1642605331.072,-7.812,32.715,-960.449,-4.883,-91.309
1642605331.076,4.395,37.109,-842.285,3.906,-42.480
1642605331.080,24.902,41.992,-499.023,22.461,37.598
1642605331.084,11.719,38.086,-482.422,15.137,36.133
1642605331.088,0.488,38.086,-436.523,3.906,5.859
1642605331.090,14.648,45.410,-149.414,12.207,17.090
1642605331.094,22.461,45.410,176.270,33.203,40.039
1642605331.098,8.301,44.922,312.988,25.391,25.879
1642605331.102,-3.418,54.688,460.449,5.859,19.531
1642605331.106,15.137,56.152,687.012,17.090,-3.418
1642605331.110,15.625,53.223,747.559,18.555,-7.812
1642605331.113,-11.230,60.547,728.027,8.301,3.906
1642605331.117,-16.113,72.266,820.801,1.465,-31.738
1642605331.121,-7.324,82.031,-993.652,1.953,-44.922
1642605331.125,-7.324,82.031,-1000.000,10.742,-32.715
1642605331.129,-14.648,88.379,994.141,10.254,-41.504
1642605331.133,-18.066,99.609,-999.512,3.418,-57.617
1642605331.135,-17.090,98.633,999.512,-13.184,-49.316
1642605331.139,-12.695,101.562,999.512,-4.395,4.883
1642605331.143,-1.465,111.328,999.512,16.602,34.668
1642605331.147,-5.371,113.281,999.512,3.906,37.598
1642605331.151,-24.902,110.840,999.512,-22.461,49.805
1642605331.155,-35.645,111.328,999.512,-33.691,31.250
1642605331.158,-40.039,108.398,-1000.000,-28.809,2.441
1642605331.162,-47.852,110.352,998.047,-35.645,2.441
1642605331.166,-65.918,107.910,996.094,-59.082,6.348
1642605331.170,-74.707,105.469,987.305,-75.195,18.066
1642605331.174,-72.754,110.840,890.137,-81.055,40.527
1642605331.178,-83.496,109.863,597.168,-87.402,28.809
1642605331.181,-98.633,105.469,474.609,-103.027,6.836
1642605331.185,-109.375,94.238,93.750,-126.953,23.926
1642605331.189,-103.516,88.379,-332.520,-125.000,22.949
1642605331.193,-97.656,88.867,-420.898,-114.746,46.875
1642605331.197,-110.352,80.078,-768.066,-121.582,54.199
1642605331.201,-117.676,67.871,-971.191,-126.953,-7.812
1642605331.204,-94.238,62.500,-965.332,-112.305,-25.879
1642605331.208,-67.383,58.594,-965.332,-83.984,18.555
1642605331.212,-64.453,55.176,-970.703,-74.707,40.039
1642605331.216,-68.359,51.270,-969.727,-83.496,28.809
1642605331.220,-58.594,40.527,-969.727,-76.172,3.906
1642605331.224,-36.621,36.133,-969.238,-46.387,25.879
1642605331.240,-27.832,35.156,-969.238,-28.320,16.113
1642605331.244,-35.156,26.855,-969.238,-37.109,-45.410
1642605331.248,-25.879,22.461,-969.238,-36.621,-36.133
1642605331.252,-6.836,24.414,-969.238,-11.230,9.277
1642605331.256,-1.953,15.625,-969.238,3.906,26.855
1642605331.260,-15.625,5.859,-969.238,-8.301,-33.203
1642605331.263,-12.695,7.324,-969.238,-13.184,-61.035
1642605331.267,14.160,10.742,-969.238,10.254,-19.043
1642605331.271,25.879,9.766,-969.727,36.133,-13.672
1642605331.275,25.391,9.766,-969.727,31.738,-53.223
1642605331.279,31.738,12.207,-969.238,19.043,-15.137
1642605331.283,50.293,11.230,-969.238,35.156,37.109
1642605331.285,64.941,10.742,-969.238,63.965,1.953
1642605331.289,57.617,8.301,-969.238,68.359,22.461
1642605331.293,48.340,5.859,-969.238,53.711,45.410
1642605331.297,53.223,3.906,-969.238,52.246,26.855
1642605331.301,57.617,-0.977,-969.727,67.383,51.270
1642605331.305,49.805,-5.371,-969.238,77.148,41.504
1642605331.308,41.016,-2.441,-969.238,61.523,21.484
1642605331.312,41.992,0.000,-969.238,51.758,23.438
1642605331.316,55.176,-6.836,-969.238,63.477,20.996
1642605331.320,62.988,-1.465,-969.238,75.195,18.066
1642605331.324,59.082,6.348,-969.238,77.637,26.855
1642605331.328,62.012,1.465,-969.238,71.289,34.668
1642605331.330,74.707,-0.488,-969.238,80.078,-1.465
1642605331.334,82.031,0.977,-969.727,88.867,4.395
1642605331.338,72.266,2.441,-969.727,77.637,39.062
1642605331.342,59.570,-0.977,-969.238,64.941,38.574
1642605331.346,65.918,-2.441,-969.727,65.918,47.363
1642605331.350,79.590,0.977,-969.238,85.449,37.109
1642605331.353,71.777,-0.977,-969.727,78.125,54.688
1642605331.357,55.664,-3.418,-969.727,59.082,47.852
1642605331.361,64.453,-4.883,-969.238,67.871,-4.395
1642605331.365,86.426,0.977,-969.727,79.102,-8.789
1642605331.369,87.402,7.324,-968.750,85.938,-1.953
1642605331.373,73.242,4.395,-958.984,71.777,-11.230
1642605331.375,72.754,4.883,-977.539,59.570,-3.418
1642605331.379,84.961,8.301,-937.988,78.613,-4.395
1642605331.383,84.961,8.789,-854.980,93.262,14.160
1642605331.387,65.918,4.395,-923.340,81.055,4.395
1642605331.391,62.500,1.953,-968.750,62.988,8.789
1642605331.395,78.613,4.883,-958.984,70.312,9.277
1642605331.398,79.102,6.836,-961.426,89.844,-0.977
1642605331.402,60.547,5.859,-967.773,82.520,-2.441
1642605331.406,47.852,4.883,-931.152,63.965,-12.695
1642605331.410,55.176,7.812,-817.383,61.035,2.930
1642605331.414,64.453,9.766,-847.656,71.289,47.363
1642605331.418,61.523,10.742,-945.801,82.031,20.020
1642605331.420,51.270,14.648,-937.500,62.012,-12.695
1642605331.424,53.711,18.555,-747.559,54.199,53.223
1642605331.428,63.477,16.602,-656.738,67.871,64.941
1642605331.432,55.664,11.230,-707.031,73.242,60.059
1642605331.436,40.527,12.207,-721.191,61.523,27.344
1642605331.440,34.180,12.695,-854.004,49.316,-0.488
1642605331.443,41.504,11.230,-934.570,61.035,9.766
1642605331.447,41.992,10.742,-975.586,69.336,21.973
1642605331.451,31.738,16.602,-819.824,61.523,59.570
1642605331.455,31.250,18.555,-614.746,49.316,55.176
1642605331.459,39.062,15.625,-730.957,49.805,14.160
1642605331.463,53.711,19.531,-700.195,67.383,58.105
1642605331.466,47.363,19.531,-690.430,67.383,69.336
1642605331.470,22.949,13.184,-701.172,46.387,76.172
1642605331.474,18.555,8.301,-714.844,40.039,86.426
1642605331.478,33.203,9.766,-823.730,57.129,22.949
1642605331.482,34.668,17.578,-614.258,62.012,25.879
1642605331.486,20.020,19.043,-642.578,44.434,75.195
1642605331.489,13.184,14.160,-886.719,37.598,57.617
1642605331.493,22.949,10.254,-896.484,46.387,13.184
1642605331.497,23.438,11.230,-699.707,48.828,17.578
1642605331.501,8.301,16.602,-613.281,35.645,48.340
1642605331.505,10.742,21.484,-687.500,23.438,86.914
1642605331.509,33.203,23.438,-693.848,37.598,87.402
1642605331.510,46.387,23.926,-570.312,55.664,79.590
1642605331.514,32.715,20.508,-592.773,44.434,92.773
1642605331.518,19.043,18.555,-738.770,20.508,36.133
1642605331.522,23.926,18.555,-759.766,18.555,39.062
1642605331.526,28.320,18.555,-736.816,34.668,80.566
1642605331.530,25.391,20.508,-815.430,28.809,26.855
1642605331.533,12.695,17.090,-969.238,-2.441,-31.738
1642605331.537,16.113,17.090,-930.664,-11.230,-41.016
1642605331.541,32.715,25.879,-687.500,13.184,31.738
1642605331.545,31.250,25.391,-717.285,24.414,39.551
1642605331.549,15.137,23.926,-794.922,11.719,25.391
1642605331.553,10.254,26.855,-666.504,4.395,56.152
1642605331.570,26.367,22.949,-658.203,16.113,87.891
1642605331.574,41.016,21.973,-765.137,28.320,78.125
1642605331.578,30.762,25.391,-754.395,20.996,87.891
1642605331.582,33.691,30.273,-587.402,16.602,119.629
1642605331.586,47.852,29.785,-532.715,33.203,74.707
1642605331.590,43.945,23.926,-723.145,39.062,65.918
1642605331.593,34.668,22.461,-890.625,26.855,25.391
1642605331.597,22.461,23.926,-673.340,20.508,23.926
1642605331.601,29.785,24.414,-407.227,29.297,53.223
1642605331.605,34.180,22.949,-618.164,43.945,-4.883
1642605331.609,23.438,24.414,-752.930,36.133,-16.602
1642605331.613,12.695,26.367,-433.594,16.602,-36.133
1642605331.615,13.672,23.438,-409.668,16.113,-30.762
1642605331.619,29.297,24.902,-534.180,28.320,-25.391
1642605331.623,28.320,29.297,-500.488,35.645,0.000
1642605331.627,15.625,30.762,-468.262,14.160,49.316
1642605331.631,10.254,28.809,-541.504,2.441,47.363
1642605331.635,21.484,29.785,-692.383,20.508,9.277
1642605331.638,29.297,32.227,-788.086,36.133,-24.414
1642605331.642,19.531,34.668,-684.082,27.832,40.527
1642605331.646,9.766,35.645,-619.141,4.883,70.801
1642605331.650,16.113,27.832,-920.898,11.230,-8.301
1642605331.654,30.273,33.691,-901.367,34.668,15.625
1642605331.658,25.879,43.945,-557.129,34.180,100.586
1642605331.660,13.672,41.016,-607.910,18.066,80.078
1642605331.664,16.602,35.156,-691.895,13.184,27.344
1642605331.668,27.832,37.109,-495.117,30.762,56.152
1642605331.672,24.902,37.598,-394.531,37.109,95.215
1642605331.676,11.719,30.273,-536.621,14.648,61.035
1642605331.680,18.555,28.809,-677.246,9.766,19.043
1642605331.683,37.598,37.109,-660.156,28.320,53.711
1642605331.687,37.598,37.109,-555.664,32.715,62.012
1642605331.691,21.484,31.250,-729.004,19.531,16.113
1642605331.695,18.555,33.203,-902.832,12.207,4.883
1642605331.699,35.156,39.062,-597.656,27.832,16.602
1642605331.703,35.645,37.598,-504.883,36.621,32.227
1642605331.705,22.461,35.156,-652.344,28.809,34.668
1642605331.709,16.113,33.691,-622.070,14.648,58.594
1642605331.713,24.902,33.691,-547.852,22.461,41.016
1642605331.717,36.133,34.180,-569.336,39.551,7.812
1642605331.721,20.996,31.738,-713.379,26.367,24.414
1642605331.725,6.348,28.320,-801.758,3.906,28.809
1642605331.728,11.230,25.391,-823.242,-0.488,19.043
1642605331.732,20.020,27.344,-759.277,17.578,25.879
1642605331.736,10.254,26.367,-861.816,21.973,-8.789
1642605331.740,0.977,27.344,-806.641,-1.465,30.762
1642605331.744,7.812,30.762,-591.309,-5.859,61.523
1642605331.748,16.113,33.203,-690.430,15.625,40.039
1642605331.751,15.625,33.203,-710.449,26.855,14.160
1642605331.755,2.930,31.250,-540.527,17.090,37.109
1642605331.759,1.465,31.738,-629.395,7.812,29.297
1642605331.763,14.160,29.785,-865.234,20.020,-4.395
1642605331.767,19.531,30.273,-816.406,33.203,37.109
1642605331.771,6.348,30.762,-728.027,23.926,59.570
1642605331.774,-2.441,27.832,-754.883,14.648,59.082
1642605331.778,15.137,26.855,-869.629,24.414,3.906
1642605331.782,26.367,29.297,-860.840,41.992,-33.203
1642605331.786,13.184,35.156,-549.805,42.480,-5.371
1642605331.790,6.836,33.691,-453.125,29.297,54.199
1642605331.794,15.137,30.762,-551.270,23.438,86.426
1642605331.795,21.973,31.738,-560.547,29.785,127.441
1642605331.799,20.996,31.250,-507.324,35.645,160.645
1642605331.803,7.324,28.320,-566.406,20.508,108.398
1642605331.807,3.906,29.297,-647.949,9.766,79.102
1642605331.811,16.113,31.250,-581.543,24.414,81.543
1642605331.815,10.742,24.902,-681.641,29.297,69.824
1642605331.818,-7.812,24.414,-851.074,17.090,48.340
1642605331.822,-19.043,24.902,-958.008,1.465,-1.953
1642605331.826,-2.930,22.949,-885.742,10.742,42.969
1642605331.830,14.648,30.273,-569.336,24.902,97.168
1642605331.834,-2.441,28.809,-565.430,15.137,51.758
1642605331.838,-7.812,23.438,-705.078,6.348,-3.906
1642605331.840,9.277,25.879,-599.609,10.254,-41.016
1642605331.844,22.949,27.344,-513.672,27.344,-40.039
1642605331.848,18.066,30.273,-589.844,28.809,24.902
1642605331.852,3.906,32.715,-665.527,10.742,19.531
1642605331.856,8.301,33.691,-542.969,11.230,22.949
1642605331.860,20.508,33.691,-564.941,29.297,28.809
1642605331.863,18.066,34.180,-825.684,33.691,-21.484
1642605331.867,4.395,36.133,-885.254,8.789,-15.137
1642605331.871,7.324,39.062,-685.059,-5.371,46.875
1642605331.875,25.391,39.551,-565.918,12.695,70.801
1642605331.879,26.367,36.133,-665.039,22.949,70.801
1642605331.883,10.742,36.621,-699.219,7.812,65.430
1642605331.886,2.930,40.039,-571.777,-12.695,59.570
1642605331.890,12.695,38.086,-575.684,1.953,70.801
1642605331.894,21.973,36.133,-650.879,29.785,44.922
1642605331.898,10.742,37.109,-678.711,16.602,-20.020
1642605331.902,-6.348,37.109,-675.293,-1.465,-50.293
1642605331.906,2.930,36.621,-775.391,13.184,22.949
1642605331.909,10.742,31.250,-961.426,28.320,36.621
1642605331.913,3.906,30.762,-829.102,29.297,37.109
1642605331.917,-4.395,34.668,-574.707,11.719,76.172
1642605331.921,-3.906,28.320,-696.777,7.812,35.645
1642605331.925,8.789,23.926,-730.957,27.832,35.156
1642605331.929,10.254,28.320,-593.262,37.109,65.430
1642605331.931,-0.488,32.715,-568.848,26.367,55.176
1642605331.935,-4.883,27.832,-740.723,16.602,40.039
1642605331.939,5.859,26.855,-819.336,28.320,18.555
1642605331.943,8.301,32.227,-559.570,37.109,37.598
1642605331.947,-1.953,33.691,-529.297,30.762,31.250
1642605331.951,-8.789,31.250,-815.918,21.973,5.859
1642605331.954,4.883,31.250,-909.668,25.879,0.000
1642605331.958,15.625,33.203,-603.516,40.527,47.852
1642605331.962,7.324,38.086,-466.797,31.738,71.289
1642605331.966,0.000,37.598,-651.855,19.043,87.891
1642605331.970,9.766,39.062,-704.102,20.996,122.070
1642605331.974,22.949,43.945,-542.480,35.645,138.184
1642605331.991,14.160,42.480,-453.125,39.062,139.648
1642605331.995,12.207,46.387,-565.918,20.996,115.723
1642605331.999,14.648,38.574,-630.859,7.812,85.449
1642605332.003,13.184,42.969,-310.547,14.648,69.824
1642605332.007,17.090,57.129,60.059,35.645,101.074
1642605332.011,6.836,53.223,88.867,26.855,78.125
1642605332.014,-3.418,50.781,212.402,0.977,61.523
1642605332.018,11.719,63.477,650.391,16.113,69.824
1642605332.022,19.531,72.754,818.848,39.062,60.547
1642605332.026,-11.230,70.801,769.043,5.859,62.500
1642605332.030,-20.996,81.543,947.754,-19.531,52.246
1642605332.034,-7.812,86.426,-982.422,-8.789,52.246
1642605332.035,-9.766,94.727,988.770,5.859,42.480
1642605332.039,-34.180,104.980,-998.535,-9.766,27.344
1642605332.043,-53.711,108.398,999.512,-43.457,40.039
1642605332.047,-45.410,111.328,999.512,-47.363,47.852
1642605332.051,-28.320,121.094,999.512,-27.832,23.926
1642605332.055,-35.645,123.047,999.512,-26.367,-33.691
1642605332.058,-59.082,126.465,999.512,-50.293,-25.391
1642605332.062,-69.824,133.301,999.512,-77.148,33.691
1642605332.066,-55.176,134.766,999.512,-63.477,21.973
1642605332.070,-61.523,130.859,999.512,-53.223,-37.598
1642605332.074,-84.473,129.395,999.512,-82.031,-21.484
1642605332.078,-99.121,129.883,999.512,-109.863,20.996
1642605332.080,-97.656,130.859,999.512,-113.770,42.480
1642605332.084,-97.656,129.883,999.023,-112.305,51.270
1642605332.088,-111.816,126.465,994.141,-128.906,29.297
1642605332.092,-118.652,125.488,999.512,-141.113,4.395
1642605332.096,-104.980,127.441,929.688,-132.324,17.578
1642605332.100,-84.961,125.488,670.898,-109.375,65.918
1642605332.103,-93.750,117.676,353.027,-112.305,75.195
1642605332.107,-102.051,111.328,41.992,-128.418,13.672
1642605332.111,-104.492,98.633,-590.820,-129.395,-31.738
1642605332.115,-99.121,91.797,-845.215,-120.117,-25.879
1642605332.119,-89.355,86.426,-720.215,-104.004,25.391
1642605332.123,-104.492,72.754,-923.340,-120.117,35.645
1642605332.125,-104.492,64.453,-984.375,-126.953,1.465
1642605332.129,-81.055,59.082,-960.938,-97.168,1.953
1642605332.133,-73.242,50.781,-970.703,-78.613,-19.531
1642605332.137,-82.520,41.504,-969.238,-79.590,-54.688
1642605332.141,-71.777,32.715,-969.238,-80.078,-4.883
1642605332.145,-39.062,25.391,-969.727,-52.246,22.949
1642605332.148,-21.973,19.531,-969.238,-17.578,-7.324
1642605332.152,-31.738,12.207,-969.238,-22.461,-67.383
1642605332.156,-30.762,4.395,-969.727,-32.715,-35.645
1642605332.160,-4.395,3.906,-969.238,-18.555,44.922
1642605332.164,14.648,3.418,-969.238,8.789,14.648
1642605332.168,11.719,-5.371,-969.727,16.113,-36.133
1642605332.170,7.812,-7.812,-969.238,4.395,9.277
1642605332.174,20.020,-3.418,-969.238,11.230,41.016
1642605332.178,39.551,-6.348,-969.238,27.344,2.930
1642605332.182,44.922,-8.789,-969.238,37.109,0.488
1642605332.186,26.367,-12.695,-969.238,22.949,39.062
1642605332.190,31.250,-14.160,-969.727,20.508,34.668
1642605332.193,59.082,-12.207,-969.238,50.781,9.277
1642605332.197,65.918,-15.137,-969.238,62.500,21.484
1642605332.201,59.570,-16.602,-969.238,54.688,4.883
1642605332.205,59.082,-16.113,-969.238,57.617,-3.418
1642605332.209,71.777,-17.090,-969.238,74.219,-0.488
1642605332.213,88.867,-13.672,-969.238,98.145,29.785
1642605332.216,75.684,-12.207,-969.238,95.215,52.246
1642605332.220,60.547,-15.625,-969.238,79.102,36.133
1642605332.224,72.266,-15.137,-969.238,86.914,-5.859
1642605332.228,84.473,-12.695,-969.238,107.422,-28.809
1642605332.232,76.172,-12.695,-969.238,108.398,49.316
1642605332.236,57.617,-16.602,-969.238,81.543,67.871
1642605332.239,56.152,-20.020,-969.238,73.242,-19.531
1642605332.243,71.777,-16.113,-969.238,95.215,12.695
1642605332.247,74.219,-8.789,-969.238,102.051,60.547
1642605332.251,59.570,-6.348,-969.238,88.867,13.184
1642605332.255,59.570,-6.348,-969.727,76.172,-40.039
1642605332.259,68.848,-8.301,-969.727,88.867,-17.090
1642605332.260,78.613,-7.812,-969.238,105.469,38.086
1642605332.264,73.730,-7.324,-969.238,100.098,17.090
1642605332.268,64.941,-7.812,-969.727,86.914,32.227
1642605332.272,78.613,-2.930,-968.262,91.309,94.727
1642605332.276,85.449,0.000,-968.750,106.934,56.152
1642605332.280,74.219,2.441,-969.727,107.910,15.625
1642605332.283,63.965,3.906,-966.797,90.820,2.441
1642605332.287,68.848,5.371,-975.586,81.543,-2.930
1642605332.291,77.148,8.789,-943.848,94.727,48.828
1642605332.295,68.359,4.395,-924.805,100.098,8.789
1642605332.299,49.805,2.441,-969.238,79.590,-30.762
1642605332.303,49.316,5.859,-947.266,69.824,24.902
1642605332.320,64.453,9.766,-891.113,83.008,42.480
1642605332.324,62.500,13.184,-921.387,86.426,34.668
1642605332.328,45.410,11.230,-923.340,70.801,69.824
1642605332.332,48.340,13.672,-819.824,60.547,74.707
1642605332.336,64.453,15.137,-876.953,62.988,23.926
1642605332.340,58.594,7.324,-965.820,69.824,-38.574
1642605332.343,41.504,8.301,-968.750,55.664,-49.316
1642605332.347,40.527,15.625,-971.680,36.133,7.812
1642605332.351,51.270,18.555,-913.574,39.551,23.926
1642605332.355,53.711,18.555,-913.574,53.711,25.391
1642605332.359,41.016,19.043,-980.957,45.410,32.227
1642605332.363,34.180,23.438,-946.777,28.320,42.969
1642605332.365,46.875,22.949,-908.203,33.203,61.523
1642605332.369,59.082,20.020,-932.617,47.852,89.355
1642605332.373,52.246,22.461,-869.141,53.223,87.402
1642605332.377,34.180,21.973,-794.434,33.691,58.594
1642605332.381,35.156,19.531,-816.406,25.879,28.320
1642605332.385,48.828,18.555,-937.988,46.387,17.578
1642605332.388,49.805,18.555,-971.680,54.199,21.484
1642605332.392,39.062,20.508,-831.055,43.457,26.367
1642605332.396,41.016,22.461,-790.039,30.762,12.695
1642605332.400,45.898,16.113,-968.750,39.062,14.160
1642605332.404,46.387,14.648,-875.977,59.082,45.898
1642605332.408,40.527,20.996,-583.496,53.223,60.547
1642605332.410,33.203,25.879,-661.133,38.574,-0.488
1642605332.414,41.504,26.855,-684.570,37.109,-8.301
1642605332.418,50.781,24.902,-518.066,47.363,19.043
1642605332.422,47.852,24.414,-490.723,56.152,41.016
1642605332.426,39.062,26.367,-607.422,42.969,40.527
1642605332.430,41.504,27.832,-758.301,39.062,25.391
1642605332.433,52.734,27.344,-763.672,51.270,27.832
1642605332.437,52.734,28.809,-660.645,51.270,42.969
1642605332.441,34.668,24.414,-767.090,41.992,65.918
1642605332.445,33.691,21.973,-934.082,33.691,30.762
1642605332.449,47.363,28.320,-734.863,46.387,22.461
1642605332.453,46.875,29.297,-593.262,53.223,70.801
1642605332.455,33.691,29.785,-710.938,38.086,77.637
1642605332.459,21.973,31.738,-748.535,26.367,62.012
1642605332.463,35.645,32.227,-571.777,38.086,102.051
1642605332.467,41.992,30.762,-586.426,53.711,78.613
1642605332.471,28.320,28.320,-750.977,39.062,23.926
1642605332.475,23.926,27.344,-792.969,20.020,-9.766
1642605332.478,35.645,28.809,-786.621,27.344,-12.695
1642605332.482,42.480,29.297,-703.125,41.992,15.137
1642605332.486,29.297,26.367,-876.953,36.133,-30.273
1642605332.490,21.973,28.809,-821.777,15.137,-8.301
1642605332.494,30.762,31.738,-516.602,19.043,55.176
1642605332.498,42.969,33.691,-594.727,41.016,30.762
1642605332.500,41.992,34.668,-613.281,43.457,27.344
1642605332.504,23.438,30.762,-520.508,26.367,28.320
1642605332.508,14.648,28.809,-560.059,15.625,9.277
1642605332.512,23.438,26.367,-827.148,32.715,10.742
1642605332.516,25.391,28.320,-785.156,48.340,23.926
1642605332.520,11.230,29.297,-639.160,33.203,-7.812
1642605332.523,2.441,29.297,-689.941,18.066,7.812
1642605332.527,10.254,33.203,-803.711,20.020,4.883
1642605332.531,20.020,34.668,-866.211,31.738,8.789
1642605332.535,11.230,33.691,-597.168,30.273,59.570
1642605332.539,-0.488,32.227,-504.883,13.672,73.730
1642605332.543,7.812,29.297,-584.961,9.766,50.781
1642605332.545,15.137,29.297,-577.148,18.555,0.000
1642605332.549,5.371,27.344,-445.801,29.297,29.297
1642605332.553,-8.301,24.414,-437.988,22.461,41.504
1642605332.557,-8.301,23.926,-624.023,11.719,2.930
1642605332.561,6.836,25.391,-555.176,29.297,35.156
1642605332.565,10.254,25.391,-518.555,42.480,92.285
1642605332.568,-0.977,26.855,-695.312,31.250,80.566
1642605332.572,-5.371,27.344,-895.508,20.020,17.090
1642605332.576,8.789,31.738,-763.672,32.227,2.930
1642605332.580,16.113,34.180,-464.355,45.898,30.273
1642605332.584,7.324,35.645,-553.711,37.598,69.824
1642605332.588,5.371,37.598,-773.926,26.855,42.969
1642605332.590,18.555,36.133,-611.816,34.668,7.324
1642605332.594,23.926,35.645,-397.461,52.246,29.297
1642605332.598,5.371,32.227,-518.066,44.922,27.832
1642605332.602,-13.184,29.297,-734.375,15.137,-8.301
1642605332.606,-3.418,30.762,-604.980,10.254,16.602
1642605332.610,15.137,35.156,-565.430,35.156,87.891
1642605332.613,13.184,36.621,-807.129,39.551,22.949
1642605332.617,-1.953,36.621,-901.367,13.184,-82.031
1642605332.621,-5.371,36.621,-800.781,-3.418,-33.691
1642605332.625,5.859,35.645,-717.285,15.625,-2.441
1642605332.629,1.465,33.691,-792.969,25.879,-20.020
1642605332.633,-16.113,34.180,-831.055,7.324,-6.836
1642605332.636,-15.625,40.039,-598.633,-6.836,63.477
1642605332.640,3.418,37.598,-596.191,1.465,84.961
1642605332.644,12.207,34.668,-675.781,21.973,74.219
1642605332.648,3.418,37.598,-646.973,19.043,48.340
1642605332.652,0.000,37.598,-590.332,10.254,33.203
1642605332.656,8.789,35.156,-704.102,11.230,38.086
1642605332.659,16.113,31.250,-932.617,20.996,40.039
1642605332.663,12.695,36.621,-808.594,29.785,47.852
1642605332.667,6.348,41.504,-551.270,17.090,35.645
1642605332.671,10.254,35.156,-642.090,17.090,3.906
1642605332.675,19.531,32.715,-666.016,27.344,20.508
1642605332.679,19.531,31.738,-728.516,24.902,32.227
1642605332.681,11.719,36.621,-753.418,20.996,36.133
1642605332.685,12.695,37.598,-744.141,14.648,37.109
1642605332.689,21.484,34.180,-812.988,27.344,11.719
1642605332.693,20.996,35.645,-605.469,31.250,5.371
1642605332.697,4.395,35.156,-507.812,16.602,28.809
1642605332.701,-3.418,32.227,-760.254,12.207,18.555
1642605332.704,4.883,29.785,-927.246,15.625,-13.672
1642605332.708,20.996,38.574,-723.145,34.180,11.230
1642605332.712,14.160,45.898,-586.914,33.203,37.109
1642605332.716,-3.906,46.875,-787.598,9.277,0.488
1642605332.720,5.371,50.781,-844.238,13.184,-17.090
1642605332.724,20.020,56.641,-583.008,28.320,32.715
1642605332.741,11.719,56.152,-575.195,26.367,41.016
1642605332.745,-0.977,57.617,-695.801,5.371,-7.812
1642605332.749,2.441,58.105,-783.203,-1.465,-20.996
1642605332.753,13.672,55.664,-654.785,24.414,18.066
1642605332.757,15.625,53.711,-575.195,37.109,42.480
1642605332.761,-2.441,47.363,-861.328,19.043,-7.812
1642605332.764,-2.441,48.340,-955.566,1.953,-13.672
1642605332.768,19.043,52.246,-667.480,22.949,36.133
1642605332.772,20.996,49.805,-590.332,46.387,27.344
1642605332.776,7.812,46.387,-849.121,33.691,44.922
1642605332.780,7.812,49.316,-767.090,16.602,65.430
1642605332.784,21.484,53.223,-542.969,21.484,37.109
1642605332.786,27.832,51.270,-653.809,35.645,5.371
1642605332.790,15.137,47.852,-688.965,34.668,21.484
1642605332.794,6.836,46.875,-585.938,19.043,37.598
1642605332.798,16.113,43.457,-532.227,19.043,41.992
1642605332.802,25.391,39.551,-662.109,30.762,36.133
1642605332.806,19.531,41.016,-802.246,36.133,72.754
1642605332.809,2.441,42.480,-791.504,20.996,79.590
1642605332.813,7.324,41.016,-748.535,12.695,7.324
1642605332.817,22.461,38.086,-781.250,28.809,12.207
1642605332.821,16.113,34.668,-955.566,25.879,13.672
1642605332.825,9.277,39.551,-696.289,14.160,23.926
1642605332.829,10.254,38.086,-508.301,9.766,50.781
1642605332.830,21.973,34.180,-596.680,20.020,32.715
1642605332.834,33.203,40.527,-562.988,37.109,25.391
1642605332.838,20.996,47.852,-501.953,25.879,21.484
1642605332.842,11.719,47.363,-511.719,13.184,19.043
1642605332.846,24.414,39.551,-573.242,20.020,65.430
1642605332.850,33.691,33.691,-667.969,29.785,65.918
1642605332.853,20.508,32.715,-708.008,20.020,32.715
1642605332.857,7.812,37.109,-665.527,4.883,35.156
1642605332.861,14.160,36.133,-884.766,12.695,15.625
1642605332.865,28.809,41.016,-887.207,29.785,18.555
1642605332.869,30.762,48.828,-534.668,37.109,40.039
1642605332.873,11.719,41.016,-547.363,21.484,24.414
1642605332.875,13.672,38.086,-688.965,10.742,30.273
1642605332.879,35.645,41.992,-563.477,26.367,-8.301
1642605332.883,34.180,43.457,-418.457,39.062,21.484
1642605332.887,13.672,40.039,-571.289,20.508,43.457
1642605332.891,8.789,40.527,-654.297,4.883,25.879
1642605332.895,20.508,41.504,-683.594,12.695,30.273
1642605332.898,24.902,38.086,-709.473,27.832,59.082
1642605332.902,11.230,35.156,-805.176,20.996,26.855
1642605332.906,-0.977,33.691,-887.207,2.930,-10.742
1642605332.910,11.230,39.062,-585.449,8.301,8.789
1642605332.914,21.973,38.086,-583.496,21.973,20.020
1642605332.918,15.137,37.109,-749.512,24.902,7.324
1642605332.920,3.906,42.969,-645.996,9.277,-19.531
1642605332.924,8.789,42.969,-479.492,9.277,12.695
1642605332.928,25.879,40.527,-445.312,27.344,16.602
1642605332.932,26.855,39.062,-518.066,32.227,20.508
1642605332.936,25.391,36.133,-504.883,37.109,20.996
1642605332.940,34.180,39.062,-583.984,36.133,14.160
1642605332.943,23.926,42.969,-689.453,24.902,17.090
1642605332.947,13.672,39.062,-759.766,21.973,3.418
1642605332.951,16.602,39.062,-576.172,21.973,-5.859
1642605332.955,18.555,41.992,-239.258,21.484,21.973
1642605332.959,36.621,40.527,-172.852,36.133,68.359
1642605332.963,42.969,35.156,-160.645,56.152,54.688
1642605332.966,25.879,31.738,-130.371,42.480,15.625
1642605332.970,14.160,28.809,-243.164,18.555,-9.277
1642605332.974,19.043,27.832,-395.996,28.320,-2.441
1642605332.978,23.926,26.855,-395.020,39.551,-26.855
1642605332.982,15.137,26.855,-234.375,35.645,-26.855
1642605332.986,7.812,28.809,-292.969,16.602,-18.066
1642605332.989,10.742,26.855,-540.039,13.184,-9.277
1642605332.993,18.555,28.809,-469.238,32.715,39.551
1642605332.997,17.578,30.762,-225.098,33.691,27.344
1642605333.001,6.836,29.297,-251.953,19.043,19.043
1642605333.005,5.859,26.855,-560.547,0.977,11.719
1642605333.009,25.391,24.902,-656.738,13.672,-9.277
1642605333.010,33.203,29.297,-331.055,40.527,12.207
1642605333.014,16.602,28.320,-316.895,30.273,44.434
1642605333.018,14.648,28.320,-486.328,13.184,18.555
1642605333.022,30.273,30.273,-514.648,17.578,29.297
1642605333.026,32.715,25.879,-480.469,37.598,85.938
1642605333.030,10.254,24.902,-495.117,33.203,98.145
1642605333.033,-4.883,25.391,-820.801,8.789,65.918
1642605333.037,9.766,29.785,-889.160,10.742,28.320
1642605333.041,28.809,36.133,-445.801,34.180,45.410
1642605333.045,21.484,35.156,-396.484,39.062,57.617
1642605333.049,9.277,35.156,-519.043,20.020,42.969
1642605333.053,18.066,38.086,-402.344,20.020,59.570
1642605333.070,33.203,34.668,-343.750,41.992,42.969
1642605333.074,29.297,30.762,-487.793,43.945,-10.254
1642605333.078,11.719,29.785,-574.707,25.391,-26.855
1642605333.082,9.766,29.297,-489.746,18.555,-17.090
1642605333.086,24.414,32.227,-447.266,34.668,-8.301
1642605333.090,23.926,28.809,-695.312,44.922,-0.977
1642605333.093,8.789,23.438,-911.621,27.344,-10.254
1642605333.097,2.930,25.879,-769.531,12.695,-30.273
1642605333.101,12.207,27.344,-564.453,20.996,-24.414
1642605333.105,20.020,24.414,-711.914,30.273,-8.301
1642605333.109,12.207,25.879,-792.969,23.438,16.602
1642605333.113,1.465,32.227,-624.512,6.836,2.441
1642605333.115,11.719,35.156,-578.613,9.766,9.766
1642605333.119,30.762,34.180,-568.359,33.691,29.785
1642605333.123,23.438,32.715,-617.188,36.133,5.859
1642605333.127,3.906,32.715,-543.945,20.508,54.199
1642605333.131,0.000,33.203,-583.496,10.254,36.621
1642605333.135,8.301,30.762,-729.004,20.996,23.926
1642605333.138,0.977,29.297,-795.898,30.762,44.434
1642605333.142,-14.648,29.785,-704.590,8.301,12.207
1642605333.146,-4.395,26.855,-620.117,-8.789,1.465
1642605333.150,10.742,21.973,-897.949,6.836,-22.949
1642605333.154,17.090,23.926,-855.469,20.996,0.977
1642605333.158,14.160,29.785,-550.781,11.719,83.496
1642605333.175,10.254,29.785,-668.945,0.000,20.020
1642605333.179,20.508,29.785,-746.094,0.488,9.277
1642605333.183,23.926,28.809,-581.543,6.348,32.715
1642605333.187,16.113,28.809,-564.941,5.859,8.789
1642605333.191,4.395,29.785,-760.742,-10.254,-4.395
1642605333.195,8.301,29.297,-872.559,-8.789,5.371
1642605333.198,23.438,32.715,-833.008,6.836,36.133
1642605333.202,25.879,36.621,-656.738,10.254,75.195
1642605333.206,9.766,35.156,-749.023,-1.953,40.039
1642605333.210,6.348,35.645,-915.527,-11.719,-18.555
1642605333.214,25.391,37.109,-667.969,7.812,-41.016
1642605333.218,23.926,32.715,-533.691,20.020,-0.977
1642605333.220,16.602,34.668,-659.180,12.207,16.602
1642605333.224,25.391,40.039,-673.828,15.137,20.508
1642605333.228,32.227,37.598,-471.191,20.996,81.543
1642605333.232,24.902,29.785,-390.625,29.785,77.637
1642605333.236,20.020,27.832,-541.504,23.438,56.152
1642605333.240,15.137,30.273,-711.426,7.324,-2.930
1642605333.243,21.973,28.320,-650.879,16.602,4.395
1642605333.247,31.738,25.879,-563.477,30.762,32.227
1642605333.251,14.648,25.391,-552.246,21.973,38.086
1642605333.255,1.465,29.785,-457.520,-8.789,72.266
1642605333.259,10.742,34.180,-429.199,-12.207,83.984
1642605333.263,20.996,31.250,-551.270,8.789,95.215
1642605333.250,12.207,28.809,-823.730,9.277,50.293
1642605333.254,2.930,32.715,-696.289,-2.930,48.828
1642605333.258,9.766,35.645,-473.145,-6.348,45.410
1642605333.262,22.949,32.227,-678.223,8.789,20.996
1642605333.266,26.367,30.762,-738.770,27.344,12.695
1642605333.270,16.113,31.738,-660.645,21.484,-18.555
1642605333.273,7.324,29.297,-720.703,8.301,-30.762
1642605333.277,17.578,31.738,-745.605,12.695,-50.293
1642605333.281,30.762,38.086,-657.227,28.320,-4.883
1642605333.285,21.484,38.574,-513.184,29.297,66.406
1642605333.289,7.812,35.645,-456.543,13.184,75.195
1642605333.293,16.113,31.250,-725.586,13.184,-0.977
1642605333.295,32.715,34.668,-859.863,26.855,-44.922
1642605333.299,27.832,42.480,-523.926,29.297,29.785
1642605333.303,11.230,37.598,-467.773,15.137,43.945
1642605333.307,13.672,36.621,-524.414,10.742,24.414
1642605333.311,23.438,38.086,-507.812,24.414,17.090
1642605333.315,18.555,34.668,-585.938,24.414,13.672
1642605333.318,0.977,34.180,-700.684,8.789,-5.859
1642605333.322,-3.906,34.180,-890.625,0.977,-46.387
1642605333.326,15.137,35.645,-870.605,14.160,7.812
1642605333.330,23.438,41.016,-505.371,30.762,83.008
1642605333.334,5.371,39.062,-516.113,17.578,42.480
1642605333.338,0.977,38.574,-619.141,2.930,30.273
1642605333.340,17.578,39.551,-503.906,13.184,53.711
