timestamps,TP9,AF7,AF8,TP10,Right AUX
1641936951.752,62.500,1.953,-96.680,77.637,-51.270
1641936951.756,72.266,2.930,-93.262,84.961,-47.852
1641936951.760,75.195,1.953,-171.875,103.027,-34.180
1641936951.764,62.012,6.348,-139.160,97.656,-13.184
1641936951.768,58.594,5.371,-49.316,79.102,0.000
1641936951.772,84.473,4.883,-103.027,88.379,-6.348
1641936951.775,99.121,-6.348,-323.242,109.375,-9.277
1641936951.779,90.820,-6.348,-412.598,105.469,-31.250
1641936951.783,82.520,10.742,-184.570,95.215,5.859
1641936951.787,97.168,16.113,-40.527,89.844,5.371
1641936951.791,119.141,19.531,-80.078,106.934,6.348
1641936951.795,111.816,20.996,-8.789,121.094,49.805
1641936951.799,88.379,16.602,157.227,102.051,29.785
1641936951.803,83.496,10.254,70.801,96.191,-11.230
1641936951.807,101.074,11.719,-26.855,112.305,-15.137
1641936951.811,93.750,17.578,55.176,121.094,-6.836
1641936951.815,58.105,12.695,133.301,107.910,11.719
1641936951.819,42.969,7.324,-30.762,83.984,7.324
1641936951.822,61.523,11.230,-297.852,96.191,-8.301
1641936951.826,77.637,24.902,-16.113,123.047,36.133
1641936951.830,55.176,25.391,266.602,110.840,36.133
1641936951.834,32.227,17.090,137.207,88.379,31.738
1641936951.838,44.922,7.324,-5.859,87.891,63.965
1641936951.842,67.383,3.418,66.406,101.074,91.309
1641936951.843,56.152,7.324,214.844,94.727,74.219
1641936951.847,25.879,-5.859,23.926,78.613,48.340
1641936951.851,28.809,-10.742,-35.645,75.195,31.250
1641936951.855,41.504,1.953,176.270,89.844,26.855
1641936951.859,16.113,-2.441,263.672,98.633,34.180
1641936951.863,-38.086,-16.602,-21.973,76.172,17.090
1641936951.866,-36.621,-0.488,-131.348,60.547,4.395
1641936951.870,17.090,17.578,214.844,80.078,38.574
1641936951.874,48.828,11.230,271.484,92.773,43.945
1641936951.878,44.922,10.742,103.516,86.426,2.930
1641936951.882,43.945,17.090,127.930,72.754,7.812
1641936951.886,61.035,18.555,278.809,73.242,36.133
1641936951.903,77.637,12.207,243.164,90.820,44.922
1641936951.907,75.195,13.672,62.988,81.055,70.801
1641936951.911,53.223,17.090,5.371,60.059,63.477
1641936951.915,56.152,27.344,110.352,62.988,41.992
1641936951.919,75.684,38.574,166.016,81.055,48.828
1641936951.923,62.012,27.344,-149.414,75.684,35.156
1641936951.926,33.203,35.156,-156.250,44.922,50.781
1641936951.930,30.273,33.203,184.082,34.668,67.871
1641936951.934,38.086,14.160,41.992,51.270,12.207
1641936951.938,30.273,16.602,33.203,71.777,-16.113
1641936951.942,1.465,27.344,232.910,46.387,6.836
1641936951.946,-9.766,28.320,178.223,20.508,-44.922
1641936951.948,12.207,20.996,39.551,37.109,-53.223
1641936951.952,17.578,22.461,27.832,48.828,-13.184
1641936951.956,-4.395,32.715,98.633,43.945,0.488
1641936951.960,-6.348,37.598,77.148,16.602,11.230
1641936951.964,26.855,34.180,-66.406,21.484,23.438
1641936951.968,31.738,34.668,-92.285,55.664,41.016
1641936951.971,11.230,35.645,-112.793,52.246,23.926
1641936951.975,23.438,39.551,13.184,34.668,6.836
1641936951.979,37.598,26.367,-123.535,25.391,0.000
1641936951.983,41.992,28.320,-325.195,46.875,-28.320
1641936951.987,43.945,47.363,107.422,62.988,8.301
1641936951.991,35.645,38.574,183.594,41.504,9.766
1641936951.993,36.133,38.574,19.043,40.527,-13.672
1641936951.997,58.594,44.922,41.504,61.035,-15.625
1641936952.001,66.406,42.969,185.059,72.266,24.902
1641936952.005,45.410,40.039,188.965,61.523,81.055
1641936952.009,45.898,30.273,45.898,36.621,77.637
1641936952.013,61.523,29.297,-37.598,46.387,56.152
1641936952.016,62.500,31.738,-13.672,55.664,64.453
1641936952.020,46.387,16.113,-43.457,40.527,43.457
1641936952.024,29.297,13.184,-395.996,25.879,-8.301
1641936952.028,52.734,40.527,-336.914,23.438,-13.672
1641936952.032,70.312,49.805,95.215,44.922,57.129
1641936952.036,46.875,33.203,54.688,39.551,93.750
1641936952.038,28.809,27.344,-1.953,13.672,57.617
1641936952.042,43.457,29.785,105.469,16.113,27.344
1641936952.046,64.941,26.855,125.488,41.016,-14.160
1641936952.050,48.828,30.273,104.980,46.387,-1.953
1641936952.054,19.531,30.273,77.148,16.113,28.320
1641936952.058,26.367,26.855,-23.926,2.441,2.441
1641936952.061,43.945,28.809,-26.367,25.879,-12.695
1641936952.065,38.086,24.902,-153.320,47.852,-4.883
1641936952.069,21.973,33.203,-219.238,32.715,32.715
1641936952.073,33.203,43.457,-11.230,10.254,43.457
1641936952.077,51.270,39.062,29.297,30.762,39.062
1641936952.081,52.246,33.203,-7.324,56.152,33.691
1641936952.082,29.785,38.086,42.969,49.805,33.203
1641936952.086,12.207,37.598,202.148,36.621,92.285
1641936952.090,34.180,40.039,178.711,36.621,81.055
1641936952.094,70.312,51.270,133.789,55.664,80.078
1641936952.098,56.641,43.457,124.512,56.641,54.199
1641936952.102,16.602,39.062,16.113,34.668,-8.789
1641936952.105,37.109,43.945,-77.148,30.762,-12.207
1641936952.109,66.895,49.805,-251.465,49.316,-22.461
1641936952.113,47.363,62.988,-49.316,62.988,-2.441
1641936952.117,19.531,52.246,236.328,42.969,24.902
1641936952.121,24.902,41.504,74.707,24.902,10.254
1641936952.125,51.758,47.852,67.383,52.734,40.527
1641936952.143,47.363,39.551,126.465,62.012,84.473
1641936952.147,22.461,33.203,94.727,34.668,36.621
1641936952.151,27.832,24.902,8.301,22.461,12.695
1641936952.155,41.504,25.879,-66.406,36.133,-11.230
1641936952.159,51.270,39.062,137.695,52.246,0.000
1641936952.163,49.805,31.738,160.156,44.922,23.926
1641936952.166,32.715,24.902,-125.488,23.926,0.488
1641936952.170,38.574,33.203,-187.988,20.020,-41.992
1641936952.174,69.824,41.016,178.223,41.504,2.441
1641936952.178,47.363,33.203,243.164,37.109,39.551
1641936952.182,20.020,36.621,128.906,23.438,8.789
1641936952.186,36.133,38.086,194.824,35.645,13.672
1641936952.173,55.664,27.832,281.250,48.340,38.574
1641936952.177,44.434,22.461,231.934,58.594,43.945
1641936952.181,23.926,17.090,118.652,33.203,10.742
1641936952.185,32.227,21.484,29.297,18.066,-9.277
1641936952.189,62.500,27.344,117.676,49.805,16.113
1641936952.193,62.500,21.973,99.609,58.594,27.344
1641936952.196,42.969,22.461,69.824,37.598,28.320
1641936952.200,38.086,27.344,236.816,13.184,49.805
1641936952.204,51.270,25.879,291.992,18.066,69.336
1641936952.208,59.082,20.508,237.793,50.293,82.031
1641936952.212,41.016,17.090,-141.113,51.758,48.828
1641936952.216,34.668,33.691,-86.914,31.738,38.574
1641936952.232,43.945,33.691,232.910,21.973,82.520
1641936952.236,51.270,30.273,151.367,44.434,84.961
1641936952.240,45.410,38.086,182.129,62.988,67.871
1641936952.244,30.762,32.715,253.418,37.598,67.383
1641936952.248,39.062,28.320,196.289,32.715,70.801
1641936952.252,57.617,22.949,4.395,54.688,100.098
1641936952.255,47.363,27.832,-85.938,56.152,79.102
1641936952.259,20.508,38.574,12.695,42.480,26.855
1641936952.263,22.461,40.039,110.352,33.691,58.594
1641936952.267,49.316,36.621,-54.199,42.480,70.312
1641936952.271,61.523,40.527,-113.770,56.641,82.520
1641936952.275,41.504,47.363,172.363,48.828,91.309
1641936952.278,28.320,37.109,125.000,30.762,63.477
1641936952.282,45.898,39.551,71.777,31.738,90.820
1641936952.286,54.688,43.457,141.113,48.828,96.191
1641936952.290,38.574,36.621,191.895,44.434,89.844
1641936952.294,29.785,22.949,63.965,24.414,76.172
1641936952.298,41.504,19.043,-147.949,21.484,66.895
1641936952.301,61.523,40.527,-185.059,43.945,50.293
1641936952.305,51.758,47.852,29.785,58.105,43.457
1641936952.309,20.508,34.668,42.480,32.227,60.059
1641936952.313,13.672,31.738,-403.809,20.020,26.855
1641936952.317,36.133,44.434,-312.500,39.062,49.316
1641936952.321,36.621,45.410,113.770,52.246,108.398
1641936952.323,7.812,40.039,47.363,40.039,109.863
1641936952.327,2.930,44.434,-29.297,21.973,85.449
1641936952.331,23.438,41.016,86.914,30.762,59.082
1641936952.335,28.809,30.762,123.047,46.387,38.574
1641936952.339,5.859,26.367,41.504,37.109,63.965
1641936952.343,-10.254,23.926,-92.773,15.625,47.363
1641936952.346,13.672,18.066,-139.160,14.648,44.434
1641936952.350,38.574,20.020,-0.977,36.621,64.453
1641936952.354,21.973,20.996,-120.117,44.922,63.477
1641936952.358,11.230,35.645,-261.719,26.367,89.844
1641936952.362,47.363,43.457,53.711,28.809,104.492
1641936952.366,78.125,30.762,92.285,71.777,115.723
1641936952.367,56.152,41.992,-28.320,81.055,104.980
1641936952.371,18.066,44.922,41.992,39.551,69.824
1641936952.375,34.668,36.133,107.422,32.715,67.871
1641936952.379,73.242,35.156,59.082,58.594,62.500
1641936952.383,71.289,35.645,41.016,66.895,85.938
1641936952.387,50.293,29.297,-18.066,51.270,78.125
1641936952.390,56.641,35.645,-95.703,37.109,49.316
1641936952.394,77.637,36.133,-25.879,47.852,83.008
1641936952.398,75.684,33.203,-214.844,62.988,55.176
1641936952.402,67.871,50.293,-95.703,60.547,55.176
1641936952.406,59.082,49.805,153.809,42.969,60.059
1641936952.410,68.359,50.293,16.113,33.203,7.812
1641936952.412,86.914,47.852,-1.953,48.828,-6.348
1641936952.416,70.312,43.457,124.512,51.758,-7.812
1641936952.420,46.875,37.109,45.898,27.832,-11.719
1641936952.424,37.109,30.762,-183.105,22.461,-0.977
1641936952.428,36.133,33.691,-101.074,28.809,24.414
1641936952.432,27.832,33.691,-4.395,32.227,55.176
1641936952.435,10.742,33.203,-69.824,18.555,76.660
1641936952.439,1.465,24.414,-283.691,1.465,27.832
1641936952.443,21.484,31.738,-367.188,17.578,-31.250
1641936952.447,36.133,47.363,74.707,37.598,28.320
1641936952.451,11.719,31.250,207.520,26.367,51.758
1641936952.455,-0.488,21.973,53.711,1.465,31.738
1641936952.458,22.461,24.902,17.090,4.883,24.414
1641936952.462,37.598,24.414,90.332,32.715,21.484
1641936952.466,15.625,21.484,39.062,38.086,44.922
1641936952.470,4.883,29.785,-21.484,21.484,48.828
1641936952.474,28.809,35.156,98.145,8.301,49.316
1641936952.478,46.875,29.785,64.941,23.926,67.871
1641936952.481,22.461,26.367,-106.445,41.992,48.828
1641936952.485,-5.371,32.227,-189.453,19.043,30.273
1641936952.489,2.930,43.945,-52.246,0.977,21.484
1641936952.493,22.461,38.574,129.395,5.859,14.160
1641936952.497,12.695,23.438,53.223,9.277,-7.812
1641936952.501,-20.508,18.555,-319.824,-8.789,-17.090
1641936952.503,-9.766,28.320,-175.293,-25.879,10.254
1641936952.507,25.879,27.832,116.699,-3.906,30.273
1641936952.511,30.762,31.250,5.859,17.090,55.664
1641936952.515,0.977,35.156,34.668,1.953,60.547
1641936952.519,-5.371,30.762,125.488,-11.719,67.871
1641936952.523,18.555,26.855,11.230,-9.277,76.660
1641936952.526,26.855,22.949,-233.887,6.836,47.363
1641936952.530,13.672,24.414,-310.059,3.906,13.672
1641936952.534,7.324,25.391,-129.395,-12.695,34.668
1641936952.538,28.809,20.020,-25.879,-6.348,47.363
1641936952.542,50.781,16.113,-65.430,13.672,14.160
1641936952.546,42.969,20.020,-62.012,23.438,-18.066
1641936952.548,23.926,29.785,77.148,8.789,56.641
1641936952.552,25.879,32.715,21.973,3.418,101.562
1641936952.556,43.457,35.645,-87.402,24.902,50.293
1641936952.560,37.109,30.762,-74.219,38.086,0.000
1641936952.564,4.395,17.090,-72.266,20.996,-2.930
1641936952.568,-4.883,10.254,-187.988,4.883,13.184
1641936952.571,19.043,11.719,-401.367,20.508,5.371
1641936952.575,33.203,22.949,-222.168,39.551,35.156
1641936952.579,6.348,31.250,23.926,28.320,70.801
1641936952.583,-9.277,30.273,-70.801,12.695,81.543
1641936952.587,24.414,27.832,-166.504,14.648,58.594
1641936952.591,41.992,38.574,-92.773,40.039,74.707
1641936952.593,27.344,40.527,67.871,48.828,64.453
1641936952.597,16.113,28.809,-74.219,21.484,9.766
1641936952.601,37.109,29.297,-175.293,20.020,22.949
1641936952.605,69.336,37.598,34.668,44.434,53.711
1641936952.609,56.152,37.109,100.586,48.340,41.992
1641936952.613,27.344,28.809,-176.758,33.691,-6.348
1641936952.616,36.133,29.785,-198.730,27.832,70.312
1641936952.620,67.383,34.668,97.656,40.527,115.234
1641936952.624,63.965,29.785,139.648,47.363,62.012
1641936952.628,28.809,25.391,-10.742,32.227,62.500
1641936952.632,15.625,33.203,22.461,21.484,94.727
1641936952.636,30.762,32.227,169.922,28.320,89.844
1641936952.654,31.250,26.367,138.184,46.875,68.848
1641936952.658,5.859,23.926,-34.668,40.039,65.430
1641936952.662,-3.418,23.438,-146.973,19.531,28.809
1641936952.666,15.137,25.879,-35.645,29.785,29.297
1641936952.670,28.809,23.926,48.340,51.758,54.199
1641936952.674,11.230,13.672,-383.301,56.641,3.418
1641936952.677,6.836,31.738,-493.652,40.527,29.785
1641936952.681,36.621,48.340,-63.965,44.922,99.609
1641936952.685,62.012,34.668,-83.984,72.754,85.449
1641936952.689,53.223,33.203,-127.441,83.496,61.035
1641936952.693,13.184,41.016,0.000,61.523,41.016
1641936952.697,-0.488,32.715,13.184,36.133,44.434
1641936952.698,10.254,31.250,-122.559,47.852,5.371
1641936952.702,13.184,45.898,-122.559,69.824,-3.906
1641936952.706,13.184,49.805,-43.945,63.477,15.137
1641936952.710,21.973,48.340,-76.172,42.480,16.113
1641936952.714,35.645,46.875,-158.691,41.016,46.875
1641936952.718,39.551,40.527,-226.562,64.453,54.199
1641936952.721,25.391,46.387,-169.922,61.035,53.711
1641936952.725,10.254,56.152,-33.203,40.527,61.035
1641936952.729,24.902,43.945,-218.750,40.527,28.809
1641936952.733,48.340,48.828,-502.441,58.594,32.715
1641936952.737,37.109,64.453,-125.977,68.848,107.422
1641936952.741,8.789,43.457,17.578,36.133,58.594
1641936952.743,14.648,37.598,-80.078,26.367,37.598
1641936952.747,32.715,47.852,53.711,37.109,89.355
1641936952.751,17.578,39.551,96.680,35.645,66.895
1641936952.755,-11.719,35.156,-3.906,32.715,42.969
1641936952.759,-8.789,40.527,-86.426,26.367,85.938
1641936952.763,9.277,40.527,-145.508,29.785,89.844
1641936952.766,12.695,37.598,-197.754,30.762,61.523
1641936952.770,4.395,37.598,-153.320,19.043,81.543
1641936952.774,-10.742,24.414,-437.500,5.371,36.621
1641936952.778,18.555,39.062,-356.445,17.578,22.461
1641936952.782,56.641,49.805,83.984,41.992,27.832
1641936952.786,47.363,37.109,42.480,33.203,32.227
1641936952.788,28.809,39.062,2.441,16.113,53.711
1641936952.792,42.969,46.387,89.355,20.508,46.387
1641936952.796,71.777,47.363,116.211,40.039,19.043
1641936952.800,68.848,43.945,2.930,52.734,9.766
1641936952.804,49.316,46.387,-13.672,32.227,64.941
1641936952.808,51.270,42.969,-80.566,17.578,42.480
1641936952.811,77.637,45.410,-112.305,44.434,17.090
1641936952.815,76.660,38.086,-176.758,55.664,43.457
1641936952.819,45.410,33.203,-298.828,38.574,4.883
1641936952.823,41.504,40.527,-12.207,19.043,5.371
1641936952.827,57.129,29.785,38.574,31.250,41.504
1641936952.831,53.711,31.738,-118.164,49.316,7.812
1641936952.877,25.879,45.898,-65.430,29.297,36.621
1641936952.881,6.348,45.898,132.324,7.812,129.395
1641936952.885,10.742,35.156,71.289,5.859,100.586
1641936952.889,29.785,38.086,-3.418,33.203,93.262
1641936952.893,13.672,37.598,133.301,37.109,90.820
1641936952.897,-10.742,26.367,17.578,6.836,45.410
1641936952.900,11.230,27.344,-167.480,5.859,4.883
1641936952.904,48.340,40.527,-258.789,38.086,0.977
1641936952.908,61.523,46.387,-104.980,57.617,20.996
1641936952.912,42.480,31.250,163.574,39.551,39.551
1641936952.916,37.109,16.602,20.020,23.926,62.500
1641936952.920,50.293,9.766,-49.316,37.598,115.234
1641936952.882,55.664,9.277,10.254,55.176,120.117
1641936952.886,50.781,12.695,-22.461,61.523,82.031
1641936952.890,28.809,6.836,-156.250,42.969,52.246
1641936952.894,39.551,11.719,-224.121,39.551,34.180
1641936952.898,62.988,21.484,20.508,63.965,56.641
1641936952.902,34.180,13.672,-67.383,48.340,54.688
1641936952.905,11.719,25.879,-201.660,21.973,16.602
1641936952.909,36.621,43.945,-49.316,30.762,1.465
1641936952.913,54.688,41.992,127.930,52.246,26.367
1641936952.917,35.156,32.227,172.852,54.688,22.461
1641936952.921,6.836,27.832,-4.395,26.855,-23.438
1641936952.925,16.113,37.109,-65.918,22.949,-17.090
1641936952.922,41.992,35.645,60.547,44.922,24.902
1641936952.926,37.598,16.113,19.531,48.340,35.645
1641936952.930,19.043,15.625,-116.211,29.785,14.648
1641936952.934,23.438,33.203,-87.402,21.973,26.855
1641936952.938,45.898,37.598,-17.090,37.598,39.062
1641936952.942,48.828,28.809,-70.801,46.387,31.738
1641936952.945,19.043,22.949,-304.199,29.297,15.625
1641936952.949,3.418,28.320,-558.105,3.906,-25.391
1641936952.953,37.598,41.504,-246.094,10.742,-8.301
1641936952.957,62.500,38.574,101.562,41.016,45.410
1641936952.961,46.875,32.715,119.141,43.457,88.867
1641936952.965,30.273,32.715,204.102,25.391,58.105
1641936952.982,41.504,29.297,183.594,16.113,2.930
1641936952.986,54.688,23.926,47.363,31.250,-21.973
1641936952.990,33.691,27.344,68.848,50.781,10.742
1641936952.994,17.578,34.668,152.832,28.320,32.227
1641936952.998,35.645,32.227,171.387,16.602,34.180
1641936953.002,50.293,24.414,-93.750,29.297,20.020
1641936953.005,50.293,30.762,-234.863,43.457,-5.859
1641936953.009,37.109,39.062,13.184,39.062,6.836
1641936953.013,40.527,41.016,172.852,19.531,21.973
1641936953.017,51.270,33.691,-28.809,35.645,3.418
1641936953.021,44.922,37.598,-106.445,49.316,14.160
1641936953.025,34.180,42.480,222.656,44.434,71.289
1641936953.027,26.367,31.250,230.469,42.480,27.344
1641936953.031,38.086,32.715,148.926,46.387,17.578
1641936953.035,49.805,36.621,176.270,60.547,46.875
1641936953.039,36.621,36.621,225.098,51.270,47.363
1641936953.043,13.672,29.785,103.516,24.902,6.348
1641936953.047,18.555,27.344,-31.250,27.832,-7.324
1641936953.050,40.039,32.715,-52.246,48.340,-11.719
1641936953.054,32.227,38.574,53.223,50.293,7.324
1641936953.058,2.441,31.250,117.188,23.926,31.738
1641936953.062,-6.348,18.555,-345.215,9.766,-31.250
1641936953.066,24.902,38.086,-315.918,38.086,-51.270
1641936953.070,29.785,51.758,150.879,48.340,-13.672
1641936953.073,-10.742,41.504,77.637,29.297,51.758
1641936953.077,-12.695,38.574,4.395,9.277,83.984
1641936953.081,23.438,39.551,97.656,16.113,62.988
1641936953.085,32.227,38.574,141.113,38.574,63.965
1641936953.089,6.348,37.109,47.363,30.273,45.898
1641936953.093,4.395,37.109,-107.910,15.625,3.418
1641936953.096,38.086,42.480,-128.418,21.973,10.742
1641936953.100,54.199,51.758,-3.906,41.504,23.926
1641936953.104,30.273,42.969,-111.816,46.387,2.441
1641936953.108,7.324,38.086,-239.746,26.855,9.277
1641936953.112,25.879,38.574,78.125,24.902,13.184
1641936953.116,41.992,20.996,125.488,43.945,43.457
1641936953.117,26.855,19.531,-91.797,53.711,30.762
1641936953.121,3.906,25.391,-19.531,37.598,-11.230
1641936953.125,13.672,26.367,165.039,26.367,47.363
1641936953.129,37.109,19.043,137.695,43.457,78.125
1641936953.133,28.320,12.695,29.785,50.781,27.832
1641936953.137,-5.859,18.555,-28.320,34.668,6.836
1641936953.140,-9.766,27.344,-68.848,10.254,9.277
1641936953.144,12.207,22.949,-37.598,17.090,55.176
1641936953.148,13.184,10.742,-217.773,38.574,28.809
1641936953.152,0.977,20.020,-134.277,28.320,-1.953
1641936953.156,1.465,21.973,153.320,10.254,32.715
1641936953.160,20.996,5.859,69.824,13.672,6.348
1641936953.164,31.738,1.953,56.641,31.738,12.695
1641936953.168,22.949,14.648,171.387,38.086,56.641
1641936953.172,6.348,15.625,79.102,22.949,56.152
1641936953.176,16.113,17.578,-183.105,23.438,32.715
1641936953.180,38.574,26.855,-143.555,40.039,-6.836
1641936953.184,32.227,27.344,-28.320,41.016,-18.066
1641936953.187,19.531,33.203,-17.578,33.203,14.160
1641936953.191,31.738,29.785,-163.086,30.273,1.465
1641936953.195,55.664,37.598,-284.180,35.156,-21.973
1641936953.199,52.734,56.641,52.734,35.645,-4.395
1641936953.203,27.344,53.223,218.262,26.855,52.246
1641936953.207,16.113,44.434,141.113,4.883,51.270
1641936953.207,39.551,42.480,85.938,-0.488,31.738
1641936953.211,60.547,45.410,159.668,20.020,30.273
1641936953.215,46.387,43.945,131.836,23.438,24.902
1641936953.219,32.227,43.945,44.922,8.301,66.895
1641936953.223,39.062,43.457,87.402,0.488,70.312
1641936953.227,41.016,39.062,23.438,7.812,45.898
1641936953.230,14.648,33.203,-64.453,10.254,60.547
1641936953.234,-14.648,28.320,-287.109,-13.672,66.895
1641936953.238,6.348,42.969,-285.156,-13.672,73.730
1641936953.242,40.039,49.316,89.844,11.719,58.105
1641936953.246,24.902,32.227,81.055,16.113,10.742
1641936953.250,1.465,28.809,30.762,-0.977,33.203
1641936953.252,6.836,29.297,127.930,-17.090,62.500
1641936953.256,25.879,21.484,154.297,-2.930,58.594
1641936953.260,31.250,24.902,32.715,13.672,31.738
1641936953.264,8.789,26.855,18.066,8.301,19.043
1641936953.268,1.953,20.020,64.453,2.930,46.387
1641936953.272,25.879,19.043,-37.598,20.020,50.781
1641936953.275,30.762,10.742,-256.836,43.457,25.879
1641936953.279,9.277,16.113,-320.312,22.949,19.043
1641936953.283,-2.441,28.809,-73.242,-0.977,20.508
1641936953.287,14.160,22.949,28.320,2.441,18.555
1641936953.291,17.578,21.484,-46.875,16.113,25.879
1641936953.295,-9.277,24.414,-0.977,31.250,44.434
1641936953.297,-30.273,22.949,191.406,5.859,48.828
1641936953.301,-24.902,16.113,125.000,-14.160,27.344
1641936953.305,-3.418,24.902,32.715,5.859,5.371
1641936953.309,-6.836,35.156,104.980,12.695,23.926
1641936953.313,-25.879,39.062,181.152,3.906,60.059
1641936953.317,-23.438,41.504,33.203,-9.766,37.109
1641936953.320,2.441,42.480,-274.902,2.441,-10.742
1641936953.324,26.855,50.781,-115.723,29.785,-33.203
1641936953.328,15.137,37.598,214.844,24.414,8.789
1641936953.332,12.695,21.484,115.234,10.254,26.367
1641936953.336,39.551,24.902,41.992,9.766,24.902
1641936953.340,55.664,28.320,36.133,30.762,40.527
1641936953.343,46.875,27.832,102.539,47.363,67.871
1641936953.347,21.973,22.461,-9.277,26.855,45.898
1641936953.351,35.645,20.996,-205.566,17.578,-19.043
1641936953.355,66.895,26.367,-9.766,39.062,0.977
1641936953.359,50.781,28.809,146.973,46.875,67.383
1641936953.363,10.742,17.090,-208.496,18.555,17.578
1641936953.366,14.160,28.809,-363.770,3.418,-10.254
1641936953.370,44.922,40.039,-4.395,20.508,22.461
1641936953.374,35.645,20.996,46.875,27.344,14.160
1641936953.378,-0.488,14.160,-127.930,18.555,3.906
1641936953.382,2.930,26.855,-85.938,14.648,47.363
1641936953.386,24.414,30.762,104.004,25.391,104.492
1641936953.403,22.949,22.949,75.684,35.156,98.145
1641936953.407,11.230,18.066,-42.969,28.320,65.430
1641936953.411,2.441,24.414,-73.730,17.578,57.617
1641936953.415,21.484,28.320,34.668,19.043,43.945
1641936953.419,46.387,18.555,65.430,38.086,22.461
1641936953.423,31.250,14.648,-200.684,41.016,-22.461
1641936953.426,20.020,22.461,-254.395,20.020,14.648
1641936953.430,36.133,25.391,81.055,17.090,88.379
1641936953.434,41.992,9.277,127.930,35.156,67.383
1641936953.438,28.320,5.371,-142.578,36.621,47.363
1641936953.442,12.695,20.996,-75.684,19.531,-3.906
1641936953.446,16.113,21.484,78.613,10.254,12.695
1641936953.448,36.133,16.602,29.297,27.832,40.039
1641936953.452,36.133,14.648,29.297,45.898,-2.441
1641936953.456,9.766,25.391,94.727,33.691,10.742
1641936953.460,19.531,38.574,102.051,34.668,42.480
1641936953.464,50.293,37.109,40.527,62.012,61.523
1641936953.468,38.574,33.203,-77.637,70.801,53.711
1641936953.471,4.883,35.645,-41.016,53.711,80.078
1641936953.475,-2.441,34.180,129.395,42.480,116.699
1641936953.479,14.160,17.090,-123.047,51.270,48.340
1641936953.483,29.785,13.672,-395.020,68.359,0.488
1641936953.487,26.855,27.344,-44.434,71.777,27.344
1641936953.491,5.371,21.973,115.723,52.246,49.316
1641936953.493,14.648,23.438,4.395,45.898,62.500
1641936953.497,25.879,26.367,93.750,56.641,125.977
1641936953.501,1.953,20.996,192.383,50.293,97.656
1641936953.505,-22.949,18.555,88.379,35.156,38.086
1641936953.509,-16.113,19.043,14.648,29.297,71.777
1641936953.513,16.113,22.461,13.184,45.898,74.219
1641936953.516,25.879,23.438,16.602,55.176,115.234
1641936953.520,9.766,15.625,72.754,41.992,120.117
1641936953.524,-0.488,6.348,-249.023,20.996,41.992
1641936953.528,20.996,24.414,-236.328,18.555,20.020
1641936953.532,38.086,26.855,263.672,50.293,83.496
1641936953.536,16.602,11.230,222.656,47.852,112.305
1641936953.537,8.789,15.137,104.004,19.531,49.316
1641936953.541,34.668,27.832,181.641,28.320,36.621
1641936953.545,45.410,25.391,252.441,50.293,89.355
1641936953.549,25.391,11.719,161.621,50.781,57.617
1641936953.553,4.395,11.230,118.652,25.391,47.852
1641936953.557,9.277,8.789,62.988,14.160,77.148
1641936953.560,27.832,10.254,22.461,43.457,58.594
1641936953.564,17.578,7.324,-104.980,49.316,26.855
1641936953.568,-4.395,17.090,-210.449,25.879,8.301
1641936953.572,10.254,37.598,99.121,3.418,45.410
1641936953.576,34.180,44.922,109.375,12.695,32.227
1641936953.580,40.039,40.527,-26.855,41.504,37.598
1641936953.583,24.902,33.691,36.133,31.250,42.969
1641936953.587,22.949,34.180,153.320,13.672,20.996
1641936953.591,41.016,24.414,101.074,9.766,29.297
1641936953.595,51.270,14.648,28.809,22.461,30.762
1641936953.599,40.039,15.137,88.867,31.250,41.016
1641936953.603,21.973,16.113,16.602,8.789,46.875
1641936953.606,30.762,7.324,-121.582,7.324,23.926
1641936953.610,50.293,3.418,-285.645,26.367,21.484
1641936953.614,45.898,23.926,-102.051,31.250,56.152
1641936953.618,28.809,24.414,216.797,24.902,73.730
1641936953.622,31.250,11.719,146.973,18.066,86.914
1641936953.626,47.852,14.160,108.398,32.227,84.473
1641936953.628,41.016,22.949,233.398,37.109,77.637
1641936953.632,10.254,21.973,168.457,24.414,73.730
1641936953.636,-0.977,16.113,-39.062,16.602,39.062
1641936953.640,16.602,22.461,-44.922,27.832,22.949
1641936953.644,25.879,29.297,141.602,48.828,26.855
1641936953.648,3.906,22.949,66.406,37.109,30.273
1641936953.651,-6.348,14.648,-212.402,19.531,-10.254
1641936953.655,14.648,26.855,-371.582,25.879,-60.547
1641936953.659,36.133,46.875,-86.914,44.434,-41.016
1641936953.663,29.297,40.039,197.266,49.805,34.668
1641936953.667,20.996,30.273,112.793,24.414,61.035
1641936953.671,41.016,34.180,50.781,21.484,38.086
1641936953.673,64.941,40.527,173.828,48.828,43.945
1641936953.677,56.641,37.598,132.812,53.711,15.137
1641936953.681,39.551,34.668,10.254,37.598,-27.344
1641936953.685,42.480,26.367,-4.883,26.855,3.418
1641936953.689,74.707,20.020,23.926,58.594,44.922
1641936953.693,75.684,21.973,35.645,76.172,18.555
1641936953.696,15.625,20.508,-285.645,33.691,-7.324
1641936953.700,1.465,40.039,-333.008,-2.930,-22.461
1641936953.704,35.156,61.523,107.910,2.930,7.324
1641936953.708,40.527,46.387,121.094,20.508,11.230
1641936953.712,24.902,42.969,41.016,21.973,3.906
1641936953.716,16.602,55.664,121.094,9.766,4.883
1641936953.733,23.926,56.152,172.852,2.930,13.672
1641936953.737,33.203,45.898,164.551,20.020,18.066
1641936953.741,20.508,42.480,139.160,22.949,17.578
1641936953.745,5.371,40.039,144.531,5.371,42.969
1641936953.749,24.902,30.273,124.512,2.441,26.855
1641936953.753,45.898,23.926,-96.680,24.902,-4.883
1641936953.756,38.574,29.785,-246.094,34.668,-19.531
1641936953.760,26.855,37.598,-48.828,12.695,23.926
1641936953.764,35.156,38.086,135.742,3.418,17.090
1641936953.768,51.270,37.598,-109.863,19.043,-46.875
1641936953.772,55.664,54.199,-190.430,32.227,-15.137
1641936953.776,35.156,51.758,172.852,20.996,52.246
1641936953.777,16.113,27.344,159.180,1.465,27.832
1641936953.781,36.133,20.996,28.320,11.230,3.906
1641936953.785,56.641,19.531,116.699,44.922,33.203
1641936953.789,44.922,22.461,233.887,36.133,53.711
1641936953.793,34.668,27.344,135.742,13.184,26.855
1641936953.797,42.480,20.020,2.930,21.484,32.715
1641936953.800,51.758,10.742,25.879,37.598,85.938
1641936953.804,45.410,14.160,125.977,43.457,66.895
1641936953.808,16.602,9.277,131.348,20.996,23.926
1641936953.812,13.184,-2.930,-331.055,5.859,-20.996
1641936953.816,46.387,19.531,-339.355,28.320,-25.391
1641936953.820,53.223,38.574,159.668,46.387,38.086
1641936953.823,23.438,25.879,116.211,29.297,12.207
1641936953.827,21.973,36.133,2.441,10.254,0.000
1641936953.831,46.387,42.969,81.543,20.020,20.508
1641936953.835,42.969,33.203,195.312,45.410,60.547
1641936953.839,12.695,27.832,152.832,40.039,48.340
1641936953.843,1.465,22.461,-21.484,18.555,1.465
1641936953.846,29.785,24.414,-57.617,26.367,53.711
1641936953.850,56.641,36.133,131.836,50.293,91.797
1641936953.854,26.367,21.973,-16.113,51.270,41.992
1641936953.858,0.488,8.301,-225.586,26.367,25.391
1641936953.862,26.367,21.973,102.539,20.996,36.133
1641936953.866,36.133,20.996,168.457,36.133,19.531
1641936953.868,16.602,23.926,35.645,39.062,11.719
1641936953.872,-4.395,36.621,79.590,30.762,39.551
1641936953.876,8.301,40.039,203.125,28.320,68.848
1641936953.880,36.133,35.645,163.574,47.852,54.688
1641936953.884,37.109,39.062,-4.883,62.012,14.160
1641936953.888,10.742,41.016,-62.988,43.945,37.109
1641936953.891,12.207,41.992,-16.113,30.273,18.555
1641936953.895,35.156,38.574,46.387,42.969,-6.348
1641936953.899,33.691,30.762,-200.684,54.199,18.066
1641936953.903,18.066,49.316,-140.137,34.668,46.875
1641936953.907,9.277,48.828,102.051,19.043,54.199
1641936953.911,29.297,37.598,54.199,33.203,75.195
1641936953.913,35.645,37.598,63.477,46.387,82.031
1641936953.917,4.883,32.227,146.484,34.668,46.875
1641936953.921,-6.348,27.832,151.367,16.113,37.109
1641936953.925,7.812,22.949,-62.500,20.508,39.551
1641936953.929,27.832,28.809,-51.270,39.551,54.199
1641936953.933,29.785,36.621,77.148,48.340,69.336
1641936953.936,18.555,38.086,67.871,37.598,106.445
1641936953.940,12.207,25.391,-128.418,19.531,96.191
1641936953.944,32.227,17.578,-270.508,34.668,25.391
1641936953.948,45.410,30.273,66.406,58.105,69.824
1641936953.952,14.648,21.484,175.293,42.969,113.281
1641936953.956,5.859,15.625,89.844,23.926,60.059
1641936953.958,35.156,28.809,93.262,35.156,62.012
1641936953.962,39.551,36.133,156.250,49.805,56.152
1641936953.966,15.625,35.645,135.254,47.363,40.527
1641936953.970,0.488,35.645,92.285,35.645,61.523
1641936953.974,17.090,30.273,133.301,30.273,47.363
1641936953.978,37.598,23.438,10.742,44.922,7.324
1641936953.981,22.461,24.902,-73.730,57.617,12.207
1641936953.985,-4.395,24.414,-324.707,35.645,0.000
1641936953.989,8.301,43.945,-299.316,20.508,24.902
1641936953.993,33.691,51.758,118.652,38.574,78.125
1641936953.997,20.996,41.992,90.820,46.387,61.523
1641936954.001,2.441,40.039,108.398,35.156,96.680
1641936954.003,11.230,35.645,212.891,19.043,128.418
1641936954.007,43.945,36.133,181.641,30.762,93.750
1641936954.011,48.340,31.738,111.816,54.688,41.016
1641936954.015,23.926,28.320,61.035,38.086,22.461
1641936954.019,15.137,34.668,82.520,16.602,9.766
1641936954.023,30.762,31.250,-26.367,21.484,-11.230
1641936954.026,43.457,29.297,-173.828,45.410,16.113
1641936954.030,39.062,35.156,-147.949,53.711,38.574
1641936954.034,23.438,41.016,41.992,26.367,55.176
1641936954.038,22.461,36.133,57.129,17.090,35.645
1641936954.042,38.574,32.227,86.914,41.504,37.598
1641936954.046,29.297,25.391,128.418,47.363,14.648
1641936954.049,11.230,19.531,121.094,16.602,-22.949
1641936954.053,23.926,19.531,74.219,5.371,10.254
1641936954.057,46.387,21.973,-51.270,37.109,18.555
1641936954.061,41.016,37.598,45.898,41.992,26.367
1641936954.065,22.949,40.527,196.289,24.414,15.625
1641936954.069,17.578,27.832,-4.883,10.254,-3.418
1641936954.072,24.414,29.297,-266.113,12.207,10.254
1641936954.076,21.973,46.387,-65.430,34.668,40.527
1641936954.080,0.000,47.363,189.453,30.273,54.688
1641936954.084,-13.184,35.156,38.574,10.254,56.641
1641936954.088,3.418,32.715,29.297,12.207,72.754
1641936954.092,18.555,26.855,43.945,27.344,47.363
1641936954.093,13.184,26.855,76.172,32.227,59.082
1641936954.097,1.465,26.855,17.090,9.766,54.688
1641936954.101,12.695,35.156,-115.234,0.977,4.883
1641936954.105,38.086,56.152,164.551,20.508,89.355
1641936954.109,28.809,47.852,248.535,26.367,96.680
1641936954.113,-0.977,24.902,-72.266,8.789,12.207
1641936954.116,4.883,30.273,-227.539,-11.230,33.203
1641936954.120,29.785,39.551,85.449,8.301,94.727
1641936954.124,22.949,33.691,263.184,16.113,99.121
1641936954.128,3.418,30.273,41.992,-5.371,82.520
1641936954.132,2.441,36.133,-18.555,-11.230,102.051
1641936954.136,30.762,43.945,121.582,-0.977,99.121
1641936954.153,35.645,39.551,94.727,11.230,68.848
1641936954.157,2.441,31.738,63.477,-0.488,109.863
1641936954.161,-1.953,29.785,-19.043,-13.184,126.953
1641936954.165,31.738,44.434,35.645,2.441,114.746
1641936954.169,47.363,41.504,132.324,26.367,139.160
1641936954.173,28.320,30.273,-168.945,17.578,92.285
1641936954.176,23.926,46.875,-254.883,-4.395,62.988
1641936954.180,41.992,56.152,0.977,4.395,81.055
1641936954.184,62.500,48.340,-5.859,32.715,44.434
1641936954.188,61.035,47.852,-217.285,43.457,4.883
1641936954.192,46.387,55.664,-80.078,24.414,10.254
1641936954.196,47.852,47.852,103.516,7.324,8.301
1641936954.197,67.383,43.945,-0.488,23.926,-22.461
1641936954.201,71.289,48.340,-16.113,44.922,-2.930
1641936954.205,49.316,46.387,66.895,36.621,10.742
1641936954.209,40.039,47.363,81.543,23.926,32.227
1641936954.213,52.246,44.922,9.277,21.973,64.453
1641936954.217,52.246,41.016,-102.051,39.551,43.945
1641936954.220,28.809,45.898,-123.535,34.668,16.602
1641936954.224,12.695,54.199,6.836,11.719,8.789
1641936954.228,16.602,42.480,-164.551,10.254,0.488
1641936954.232,27.344,41.992,-412.598,22.461,-30.762
1641936954.236,21.973,62.988,-46.875,34.180,-5.859
1641936954.240,1.953,57.129,82.520,16.602,18.066
1641936954.243,5.859,43.457,-50.293,5.371,1.465
1641936954.247,24.414,41.504,42.480,27.832,30.762
1641936954.251,21.484,40.039,176.270,34.668,66.895
1641936954.255,-5.859,30.762,74.707,19.531,0.977
1641936954.259,-3.906,28.809,-32.227,16.602,-12.207
1641936954.263,28.320,22.949,-128.906,27.832,-2.441
1641936954.266,32.715,22.949,-147.461,41.016,-32.227
1641936954.270,12.695,28.320,-39.551,37.109,5.371
1641936954.274,15.625,18.555,-378.906,37.598,-21.484
1641936954.278,44.434,36.621,-395.020,47.363,-50.781
1641936954.282,43.945,50.781,108.398,54.199,67.871
1641936954.286,19.531,32.227,75.195,45.410,109.375
1641936954.288,1.953,20.020,-58.105,22.461,78.613
1641936954.292,15.137,20.996,91.797,20.020,32.227
1641936954.296,41.992,24.902,159.180,41.504,22.949
1641936954.300,27.832,23.926,47.852,49.805,31.738
1641936954.304,0.000,25.391,11.230,25.879,32.227
1641936954.308,11.230,30.762,-49.316,20.020,47.363
1641936954.311,39.551,34.668,-72.266,41.504,28.809
1641936954.315,29.297,26.855,-184.082,42.480,9.766
1641936954.319,8.301,26.367,-335.938,27.344,-30.762
1641936954.323,26.367,38.086,-10.742,15.137,-5.859
1641936954.327,37.598,31.738,77.637,23.926,23.926
1641936954.331,39.062,27.344,-104.492,50.781,8.301
1641936954.333,28.809,31.738,-26.367,47.363,8.789
1641936954.337,20.020,37.109,154.785,36.621,35.645
1641936954.341,29.297,35.156,134.277,38.574,60.059
1641936954.345,26.367,36.133,34.668,48.340,55.176
1641936954.349,2.441,46.387,51.758,50.781,47.852
1641936954.353,-11.230,52.734,-4.883,28.320,42.480
1641936954.356,5.371,53.223,-131.348,30.273,8.789
1641936954.360,26.855,48.340,-329.590,48.828,-41.992
1641936954.364,24.902,58.594,-145.020,47.852,-14.648
1641936954.368,5.859,55.664,208.984,41.504,47.363
1641936954.372,9.766,39.062,94.238,33.203,40.039
1641936954.376,39.551,44.434,4.395,46.875,43.457
1641936954.378,49.805,47.363,141.602,61.035,59.570
1641936954.382,32.715,40.527,152.344,53.223,34.180
1641936954.386,26.367,35.156,-20.020,42.969,65.430
1641936954.390,50.781,35.645,-73.730,46.387,70.312
1641936954.394,59.570,43.945,149.902,68.848,90.332
1641936954.398,16.602,42.969,121.582,54.688,78.613
1641936954.401,-11.230,32.715,-206.055,19.043,4.395
1641936954.405,11.230,31.738,-296.875,23.438,15.137
1641936954.409,32.715,38.574,113.770,50.781,56.152
1641936954.413,12.695,30.762,245.605,45.410,73.242
1641936954.417,-11.230,28.320,92.285,7.812,75.684
1641936954.421,0.000,31.738,134.766,5.859,86.426
1641936954.423,26.855,24.902,212.891,40.527,74.707
1641936954.427,21.484,21.484,156.738,47.852,25.879
1641936954.431,0.488,23.438,132.324,21.484,48.828
1641936954.435,7.812,25.391,90.332,4.883,81.055
1641936954.439,38.086,33.203,25.391,27.344,86.914
1641936954.443,43.457,37.598,79.590,51.270,93.262
1641936954.446,15.625,27.344,-204.590,38.086,57.129
1641936954.450,15.625,30.762,-231.934,20.020,56.641
1641936954.454,47.363,31.738,92.773,29.297,40.039
1641936954.458,49.805,10.254,70.312,53.711,36.133
1641936954.462,30.762,19.043,84.961,57.617,68.359
1641936954.466,19.043,39.551,146.973,35.645,62.012
1641936954.483,36.133,39.551,160.645,33.691,82.031
1641936954.487,48.340,37.109,78.613,42.969,63.965
1641936954.491,45.898,44.434,68.359,57.129,46.387
1641936954.495,30.762,43.457,157.227,50.781,63.965
1641936954.499,12.695,22.949,187.988,30.273,71.289
1641936954.503,20.508,12.695,-101.074,39.551,29.785
1641936954.506,18.555,22.949,-310.059,49.316,41.992
1641936954.510,11.719,43.945,-54.199,49.805,90.332
1641936954.514,21.973,44.922,131.836,39.062,57.129
1641936954.518,37.598,25.879,-97.656,44.922,15.625
1641936954.522,36.133,25.879,-196.777,55.664,14.648
1641936954.526,28.320,32.715,147.461,42.480,53.223
1641936954.527,26.367,28.320,185.547,26.367,69.824
1641936954.531,48.340,25.391,103.027,30.273,69.824
1641936954.535,63.965,27.832,183.105,49.805,81.055
1641936954.539,40.039,22.949,236.328,46.387,63.965
1641936954.543,23.438,18.066,127.441,24.414,13.184
1641936954.547,41.016,20.996,8.789,27.832,52.734
1641936954.550,53.711,23.438,-48.828,41.504,69.336
1641936954.554,36.621,26.367,39.062,42.480,51.270
1641936954.558,15.625,22.949,90.332,23.926,63.477
1641936954.562,16.602,9.766,-308.594,8.789,25.391
1641936954.566,42.969,22.949,-320.801,27.344,40.039
1641936954.570,46.387,35.645,60.547,44.434,83.984
1641936954.573,10.742,19.531,36.621,24.414,61.035
1641936954.577,11.230,16.113,21.484,6.836,82.031
1641936954.581,44.922,23.926,92.285,22.461,70.801
1641936954.585,48.828,26.367,124.512,48.340,47.363
1641936954.589,28.809,24.902,32.715,45.410,23.926
1641936954.593,23.438,31.250,-131.836,24.902,12.207
1641936954.596,39.062,42.480,-109.863,22.949,37.109
1641936954.600,55.664,48.340,87.402,38.574,35.156
1641936954.604,36.621,39.551,-60.547,36.133,47.363
1641936954.608,17.090,43.945,-269.043,7.324,32.227
1641936954.612,40.527,64.941,39.062,12.695,38.086
1641936954.616,63.965,56.152,130.859,33.203,35.645
1641936954.618,50.293,45.898,-52.734,30.762,0.488
1641936954.622,28.809,49.805,-34.668,23.926,21.973
1641936954.626,38.086,44.434,72.754,20.020,13.184
1641936954.630,59.570,38.574,19.531,37.598,-22.461
1641936954.634,52.246,43.945,-32.227,43.457,2.930
1641936954.638,23.926,41.992,-92.285,26.367,43.457
1641936954.641,16.602,45.898,-164.551,15.625,-1.465
1641936954.645,27.832,54.199,-54.688,15.625,-50.781
1641936954.649,24.414,51.758,-187.500,26.855,-71.777
1641936954.653,5.859,61.523,-29.785,4.883,8.301
1641936954.657,-3.906,58.594,367.676,-20.996,78.613
1641936954.661,18.066,53.223,294.922,-4.883,46.875
1641936954.663,45.410,53.711,248.047,14.160,14.648
1641936954.667,38.086,60.059,452.148,23.926,29.785
1641936954.671,19.531,63.477,564.453,8.789,99.121
1641936954.675,18.555,60.059,383.789,-1.953,50.781
1641936954.679,26.855,66.895,425.781,27.832,45.898
1641936954.683,26.855,70.801,480.957,50.781,81.055
1641936954.686,9.766,78.125,479.492,47.852,43.945
1641936954.690,3.906,73.730,431.641,30.762,26.367
1641936954.694,26.855,75.195,313.477,43.945,13.672
1641936954.698,36.621,94.727,674.805,61.035,35.645
1641936954.702,18.555,95.703,760.254,46.387,34.668
1641936954.706,15.137,94.727,624.512,36.133,55.176
1641936954.708,32.227,94.727,621.582,42.480,60.547
1641936954.712,43.457,93.262,703.125,66.406,27.344
1641936954.716,16.113,90.332,679.688,63.477,26.367
1641936954.720,-3.906,86.426,528.809,34.180,35.645
1641936954.724,13.184,88.379,495.605,27.832,89.355
1641936954.728,22.461,88.867,387.695,32.227,113.281
1641936954.731,-6.836,88.379,232.910,20.508,67.871
1641936954.735,-55.664,82.520,-123.535,-19.531,31.738
1641936954.739,-59.082,83.008,-210.938,-47.363,26.855
1641936954.743,-44.434,81.055,52.246,-44.434,20.508
1641936954.747,-61.523,72.266,-77.637,-49.316,7.324
1641936954.751,-87.891,60.059,-238.281,-75.195,19.531
1641936954.753,-92.773,54.199,-258.301,-95.215,25.879
1641936954.757,-77.637,47.363,-277.344,-89.844,33.691
1641936954.761,-86.914,33.691,-453.125,-79.590,35.156
1641936954.765,-107.422,30.762,-579.102,-95.703,13.184
1641936954.769,-98.145,32.227,-518.555,-107.910,2.441
1641936954.773,-66.406,34.180,-605.469,-86.426,-2.930
1641936954.776,-60.059,25.879,-821.289,-64.941,18.555
1641936954.780,-75.684,24.902,-860.352,-62.988,29.785
1641936954.784,-66.406,37.109,-656.738,-71.777,39.551
1641936954.788,-41.016,28.809,-582.520,-59.082,43.945
1641936954.792,-19.531,24.902,-669.434,-30.762,17.578
1641936954.796,-24.414,33.691,-609.863,-19.531,-1.465
1641936954.799,-34.180,32.715,-450.195,-31.250,43.945
1641936954.803,-17.090,23.926,-455.566,-31.250,55.664
1641936954.807,10.742,15.137,-481.934,-3.418,48.340
1641936954.811,14.648,4.883,-434.570,16.602,46.387
1641936954.815,-5.371,10.742,-369.629,8.301,27.832
1641936954.819,-2.930,12.207,-462.402,-0.488,27.832
1641936954.822,22.461,13.672,-699.707,13.184,2.441
1641936954.826,32.227,26.367,-597.656,30.273,-33.203
1641936954.830,18.066,24.414,-222.168,33.203,22.949
1641936954.834,10.742,10.254,-218.750,27.832,66.406
1641936954.838,33.203,2.441,-316.406,30.762,29.785
1641936954.842,45.898,3.906,-275.391,46.387,29.785
1641936954.843,31.738,7.812,-224.609,49.805,43.457
1641936954.847,16.602,7.324,-284.668,26.855,33.203
1641936954.851,26.855,8.301,-360.840,25.391,49.316
1641936954.855,59.570,9.277,-150.391,46.875,62.012
1641936954.859,50.293,-4.395,-4.395,51.758,81.055
1641936954.863,15.625,-10.254,-291.504,39.551,34.668
1641936954.866,28.320,5.859,-398.926,32.715,-3.906
1641936954.870,66.406,16.602,-26.367,55.664,36.133
1641936954.874,69.336,5.859,95.215,66.895,51.270
1641936954.878,47.363,2.930,-74.219,50.293,27.344
1641936954.882,53.223,12.695,-99.609,50.781,-1.465
1641936954.886,80.566,13.184,67.383,66.895,0.977
1641936954.903,83.008,8.301,111.328,89.355,4.395
1641936954.907,55.664,5.859,23.438,75.684,8.301
1641936954.911,40.527,6.836,-26.855,54.688,60.547
1641936954.915,60.547,6.348,74.707,69.336,83.496
1641936954.919,72.266,-5.859,136.230,91.309,62.988
1641936954.923,46.875,-6.348,-105.469,94.238,1.953
1641936954.926,34.668,15.625,-183.105,63.965,1.465
1641936954.930,57.129,27.344,63.965,50.293,32.715
1641936954.934,73.242,19.531,75.684,68.848,35.645
1641936954.938,64.941,20.508,-139.648,75.195,48.340
1641936954.942,47.852,33.203,0.000,65.430,75.195
1641936954.946,53.711,26.367,161.621,50.293,75.684
1641936954.948,80.078,19.043,32.715,62.500,28.809
1641936954.952,84.473,24.414,29.297,87.402,17.090
1641936954.956,66.895,32.227,121.094,76.660,15.137
1641936954.960,56.152,30.273,118.164,61.035,55.664
1641936954.964,62.988,18.555,19.531,64.453,115.723
1641936954.968,63.965,15.625,-86.426,79.102,101.562
1641936954.971,43.457,20.996,-111.816,80.566,36.133
1641936954.975,34.668,31.738,-37.109,49.316,-14.160
1641936954.979,51.270,25.879,-134.277,45.410,-22.949
1641936954.983,70.312,25.391,-374.512,65.430,14.160
1641936954.987,62.500,44.434,-116.211,68.848,35.156
1641936954.991,35.645,42.480,-22.949,53.711,30.273
1641936954.993,42.969,40.039,-60.059,46.387,57.617
1641936954.997,65.430,41.992,33.691,61.523,57.617
1641936955.001,58.594,42.480,138.672,64.453,49.316
1641936955.005,39.062,36.621,79.590,48.828,20.508
1641936955.009,42.480,36.621,-22.949,41.992,8.789
1641936955.013,62.500,39.062,-76.660,51.758,-12.695
1641936955.016,58.105,36.621,-104.492,62.500,-20.020
1641936955.020,30.273,31.250,-22.461,52.734,10.254
1641936955.024,17.090,19.531,-334.961,35.645,7.324
1641936955.028,42.969,35.156,-267.090,42.480,28.809
1641936955.032,56.641,36.133,184.082,55.176,61.523
1641936955.036,23.926,21.484,86.914,42.480,28.320
1641936955.037,5.371,17.090,-43.457,22.949,20.996
1641936955.041,33.691,21.973,86.914,31.738,69.824
1641936955.045,52.246,25.391,144.043,57.129,83.984
1641936955.049,35.156,23.926,82.031,64.453,69.336
1641936955.053,18.066,26.367,54.688,44.922,67.871
1641936955.057,29.785,21.973,-30.762,37.598,37.598
1641936955.060,57.617,33.691,-77.148,65.918,6.348
1641936955.064,52.246,37.598,-187.500,82.031,-5.371
1641936955.068,32.227,33.203,-301.270,60.547,-50.781
1641936955.072,30.762,44.434,9.277,46.875,-19.531
1641936955.076,40.039,42.480,127.441,61.523,20.020
1641936955.080,41.504,36.621,-52.246,71.289,3.418
1641936955.084,32.227,40.039,-0.977,56.641,29.785
1641936955.088,29.297,44.434,141.113,39.062,46.387
1641936955.092,39.551,41.504,92.773,44.434,25.879
1641936955.096,48.828,37.109,74.707,59.082,30.762
1641936955.100,24.414,38.574,114.258,47.363,26.855
1641936955.104,3.418,37.109,-1.465,18.555,46.387
1641936955.107,12.695,39.062,-62.500,16.113,75.684
1641936955.111,21.484,36.133,-317.871,23.438,27.344
1641936955.115,17.578,47.363,-297.363,14.648,8.301
1641936955.119,-0.488,55.176,97.656,2.441,73.730
1641936955.123,5.371,51.270,23.438,-4.883,83.496
1641936955.127,23.926,53.223,-68.359,5.859,-4.395
1641936955.128,10.254,56.152,70.801,12.695,-42.480
1641936955.132,-9.277,48.828,41.016,4.395,-20.020
1641936955.136,-6.348,51.270,-155.273,-4.395,-12.695
1641936955.140,16.602,62.500,-125.977,0.000,-26.367
1641936955.144,28.809,55.664,15.137,18.555,20.020
1641936955.148,8.301,47.363,-48.828,8.301,63.965
1641936955.151,-4.395,40.527,-272.949,-17.578,47.363
1641936955.155,20.996,45.410,-509.277,-6.836,13.184
1641936955.159,44.922,61.523,-256.348,23.926,-2.930
1641936955.163,30.273,53.223,26.367,33.203,18.066
1641936955.167,12.695,43.457,-77.637,4.883,13.184
1641936955.171,32.715,48.340,-108.887,2.930,-6.836
1641936955.173,56.152,54.199,-0.977,36.133,0.977
1641936955.177,41.504,45.898,5.859,37.109,12.695
1641936955.181,19.531,39.062,-53.223,20.996,50.781
1641936955.185,32.715,39.062,-48.340,6.836,58.105
1641936955.189,57.617,35.156,-118.164,19.043,-3.418
1641936955.193,59.082,30.273,-147.461,42.480,35.645
1641936955.196,27.344,22.949,-432.129,24.414,14.160
1641936955.200,18.066,36.133,-479.980,6.836,-59.082
1641936955.204,45.410,43.945,-59.082,10.254,-8.789
1641936955.208,45.410,34.668,-22.461,26.855,39.062
1641936955.212,15.625,34.668,-32.227,27.344,57.129
1641936955.216,0.488,37.598,1.953,-1.465,78.613
1641936955.233,16.602,35.156,34.668,0.977,70.801
1641936955.237,28.320,34.180,-23.438,20.508,66.406
1641936955.241,13.184,33.691,-51.270,23.926,82.520
1641936955.245,-8.301,34.180,-12.207,10.742,47.363
1641936955.249,1.465,31.738,25.391,11.230,33.691
1641936955.253,22.461,20.508,-173.828,33.691,35.645
1641936955.256,28.320,29.785,-287.109,34.668,7.812
1641936955.260,18.555,47.363,-37.598,31.250,31.250
1641936955.264,17.578,46.387,73.730,20.508,54.688
1641936955.268,32.715,33.203,-156.738,20.020,-9.766
1641936955.272,33.203,33.203,-220.215,38.574,-20.020
1641936955.276,16.113,33.691,115.234,21.973,80.566
1641936955.278,8.301,28.809,111.816,4.883,62.988
1641936955.282,37.598,36.133,44.434,25.391,19.531
1641936955.286,46.875,38.574,136.230,45.898,47.363
1641936955.290,26.855,34.180,161.133,38.574,38.574
1641936955.294,18.066,26.855,107.910,18.066,30.762
1641936955.298,31.738,25.391,-32.715,20.508,25.879
1641936955.301,47.852,30.273,-105.957,40.527,11.719
1641936955.305,32.715,26.855,38.574,42.969,56.152
1641936955.309,4.883,26.367,61.035,28.320,41.016
1641936955.313,1.465,23.438,-374.023,20.996,-16.113
1641936955.317,26.855,41.992,-385.742,38.574,-7.324
1641936955.321,30.762,57.617,107.422,57.617,42.969
1641936955.323,4.883,45.898,71.289,49.805,56.152
1641936955.327,8.789,43.945,-42.969,34.180,55.176
1641936955.331,36.621,48.828,59.570,46.875,52.734
1641936955.335,41.992,42.480,137.207,66.895,30.762
1641936955.339,20.508,33.691,57.129,53.711,22.949
1641936955.343,17.578,31.250,-113.281,35.645,20.508
1641936955.346,37.598,34.180,-148.438,47.852,18.555
1641936955.350,39.062,40.039,83.008,69.824,45.898
1641936955.354,1.953,21.484,-47.363,62.988,31.250
1641936955.358,-19.531,20.020,-289.062,42.480,13.672
1641936955.362,2.441,35.156,22.461,49.805,31.738
1641936955.366,31.250,28.809,163.086,74.219,34.668
1641936955.368,35.645,28.320,69.824,83.008,25.391
1641936955.372,27.344,28.809,105.469,68.359,46.875
1641936955.376,22.461,22.949,226.562,45.410,74.219
1641936955.380,24.902,19.531,186.523,52.246,46.387
1641936955.384,20.508,23.438,25.391,59.570,42.480
1641936955.388,0.488,27.344,-118.164,44.922,53.711
1641936955.391,3.906,30.273,-132.324,36.133,23.438
1641936955.395,28.320,30.762,-20.020,45.410,13.672
1641936955.399,31.738,24.414,-166.016,62.500,-18.066
1641936955.403,15.625,33.691,-47.363,48.828,-24.414
1641936955.407,0.488,29.785,220.703,21.484,12.695
1641936955.411,3.906,14.648,44.922,33.691,15.137
1641936955.414,13.672,19.531,44.922,53.711,45.898
1641936955.418,0.488,32.227,189.453,52.246,53.223
1641936955.422,-16.113,28.320,262.695,32.715,47.363
1641936955.426,-6.836,16.602,21.484,28.809,33.691
1641936955.430,16.602,26.367,-100.098,49.805,10.742
1641936955.434,16.602,28.320,11.230,46.387,5.371
1641936955.437,9.277,25.879,12.207,28.809,-11.719
1641936955.441,27.344,19.043,-115.723,19.531,-38.086
1641936955.445,48.828,15.625,-267.090,29.785,-49.805
1641936955.449,43.945,26.367,89.844,54.688,33.203
1641936955.453,28.809,24.414,208.984,44.922,41.992
1641936955.457,32.227,25.391,94.238,21.973,2.441
1641936955.458,59.570,26.855,101.074,22.949,15.137
1641936955.462,78.613,26.855,226.074,44.922,71.289
1641936955.466,63.477,20.508,243.652,55.176,73.730
1641936955.470,49.805,18.555,54.688,26.367,-6.348
1641936955.474,66.406,19.531,74.707,26.855,-3.418
1641936955.478,79.102,20.020,49.805,43.945,45.898
1641936955.481,58.594,26.367,-6.836,36.133,36.621
1641936955.485,22.461,17.578,-278.320,16.602,3.418
1641936955.489,32.715,32.227,-331.055,8.301,0.000
1641936955.493,59.082,52.734,168.945,30.762,10.742
1641936955.497,47.852,43.457,241.699,36.621,44.922
1641936955.501,25.391,32.715,116.699,13.672,41.992
1641936955.503,26.367,30.762,154.785,12.207,-10.254
1641936955.507,49.805,37.109,233.887,29.785,6.348
1641936955.511,49.805,34.668,155.762,38.086,4.883
1641936955.515,27.832,14.648,111.328,21.484,9.766
1641936955.519,28.809,-17.090,161.621,11.230,-14.160
1641936955.523,54.688,-50.781,85.449,29.297,-10.254
1641936955.526,65.918,-65.430,-121.582,48.828,-23.438
1641936955.530,48.340,-59.082,-135.254,43.457,-6.348
1641936955.534,45.410,-45.898,105.469,25.879,44.922
1641936955.538,56.152,-46.875,172.852,37.598,19.043
1641936955.542,56.641,-46.875,63.477,52.734,0.000
1641936955.546,32.715,-43.945,99.121,44.434,25.879
1641936955.548,10.742,-48.828,292.480,25.879,67.871
1641936955.552,23.438,-48.340,248.047,21.973,29.785
1641936955.556,48.828,-44.434,146.484,41.016,-20.996
1641936955.560,42.969,-43.457,232.422,56.152,29.297
1641936955.564,39.062,-45.898,317.383,61.523,78.613
1641936955.568,41.504,-42.969,177.734,45.898,48.340
1641936955.571,31.738,-25.879,-156.738,19.531,11.230
1641936955.575,31.250,-13.184,-56.152,18.066,0.000
1641936955.579,19.531,-15.625,310.547,10.742,-4.395
1641936955.583,10.742,-16.113,272.949,-6.348,7.812
1641936955.587,42.969,-11.719,255.859,3.906,26.855
1641936955.591,56.641,-0.488,278.320,21.973,26.367
1641936955.593,24.902,0.977,247.070,14.648,-1.465
1641936955.597,6.348,-2.930,125.977,2.441,1.465
1641936955.601,25.879,4.395,55.176,12.695,20.508
1641936955.605,49.805,10.254,265.137,39.551,19.043
1641936955.609,37.109,-3.906,285.645,35.156,18.555
1641936955.613,17.578,-23.438,-31.250,16.113,-25.879
1641936955.616,31.738,-13.184,-118.652,17.578,0.000
1641936955.620,63.477,11.230,203.613,34.180,37.109
1641936955.624,54.199,11.230,339.355,44.922,15.137
1641936955.628,21.973,3.906,176.270,30.273,16.602
1641936955.632,22.949,7.812,83.496,18.066,0.977
1641936955.636,42.480,17.090,247.559,33.691,8.789
1641936955.653,40.527,13.672,279.297,50.293,0.488
1641936955.657,19.531,14.648,175.781,37.598,-18.555
1641936955.661,11.230,18.066,99.609,11.230,17.578
1641936955.665,27.344,21.484,118.652,16.602,33.691
1641936955.669,39.551,19.531,190.918,39.062,30.273
1641936955.673,19.531,12.695,2.441,36.133,11.719
1641936955.676,-7.324,25.391,-95.215,5.859,24.414
1641936955.680,6.348,37.598,129.883,4.395,56.152
1641936955.684,31.738,29.785,176.270,35.645,18.555
1641936955.688,19.043,20.508,-105.469,38.086,-20.020
1641936955.692,-0.977,28.320,-8.789,20.020,20.020
1641936955.696,12.207,33.203,200.684,8.789,58.105
1641936955.698,31.250,31.250,72.266,26.855,16.602
1641936955.702,24.414,32.715,78.613,49.316,19.043
1641936955.706,3.418,28.809,169.434,29.297,22.949
1641936955.710,1.465,21.484,171.387,15.137,14.160
1641936955.714,18.066,25.391,98.633,19.531,31.250
1641936955.718,18.555,28.320,-7.812,33.691,25.879
1641936955.721,-0.488,23.438,-93.750,38.086,-4.883
1641936955.725,-1.465,30.762,21.484,20.020,9.766
1641936955.729,16.113,29.785,9.277,24.414,13.672
1641936955.733,20.020,29.785,-276.855,41.016,-32.227
1641936955.737,15.625,46.387,8.789,35.645,-3.418
1641936955.741,-0.977,36.621,195.801,24.414,27.344
1641936955.773,3.906,26.367,91.309,24.414,26.367
1641936955.777,27.344,28.320,111.328,40.039,30.762
1641936955.781,19.531,41.016,210.938,42.969,37.109
1641936955.785,0.000,47.363,179.199,22.949,36.621
1641936955.789,6.348,49.805,70.312,17.578,28.809
1641936955.793,33.203,48.340,38.086,26.367,38.574
1641936955.796,37.598,37.598,46.387,39.062,55.176
1641936955.800,3.906,36.133,105.469,24.414,65.430
1641936955.804,-17.090,30.762,-246.582,1.465,37.598
1641936955.808,20.996,36.133,-299.805,17.578,21.484
1641936955.812,43.945,44.922,109.863,38.086,19.531
1641936955.816,12.207,42.480,57.129,31.738,-25.391
1641936955.788,0.488,45.898,20.508,8.789,7.324
1641936955.792,26.367,43.457,149.902,13.672,50.781
1641936955.796,38.086,32.715,136.719,35.156,36.621
1641936955.800,17.578,34.180,25.391,37.598,54.688
1641936955.804,6.836,40.527,78.613,31.250,86.426
1641936955.808,22.949,39.062,62.500,23.926,50.781
1641936955.811,40.039,37.109,9.766,42.480,-1.953
1641936955.815,29.297,31.738,35.645,54.688,-17.090
1641936955.819,7.812,28.809,54.688,33.203,33.203
1641936955.823,14.648,32.227,156.250,17.090,56.152
1641936955.827,28.809,21.484,88.867,25.391,38.086
1641936955.831,29.297,22.461,-31.738,41.016,15.137
1641936955.833,19.043,39.551,46.387,30.762,-0.488
1641936955.837,7.812,39.062,132.324,17.578,5.859
1641936955.841,19.531,37.598,187.988,27.832,26.855
1641936955.845,23.438,27.832,-115.234,34.180,36.133
1641936955.849,8.301,29.297,-306.641,31.250,26.367
1641936955.853,4.883,40.039,-38.574,17.578,60.547
1641936955.856,25.879,34.668,-71.289,13.672,40.527
1641936955.860,48.340,34.668,-255.859,34.668,0.977
1641936955.864,34.180,42.480,-27.832,39.062,55.176
1641936955.868,12.695,41.992,161.621,16.113,49.316
1641936955.872,13.184,35.645,38.574,11.230,29.297
1641936955.876,27.832,33.691,100.586,32.227,41.504
1641936955.879,29.785,36.133,208.496,45.410,24.902
1641936955.883,9.277,30.273,145.020,28.320,28.320
1641936955.887,15.137,24.414,-106.934,6.348,0.488
1641936955.891,39.551,34.668,-82.031,19.531,-28.320
1641936955.895,42.480,38.086,176.270,43.457,8.789
1641936955.899,21.484,27.344,110.352,30.762,10.742
1641936955.902,6.836,25.879,-191.895,3.906,-33.203
1641936955.906,29.297,40.527,-232.422,9.766,-34.668
1641936955.910,55.664,51.270,129.395,28.320,-0.977
1641936955.914,29.297,33.691,255.371,16.602,8.789
1641936955.918,-0.977,26.367,155.762,-10.254,-4.395
1641936955.922,20.020,27.832,124.512,-13.184,19.043
1641936955.923,52.734,25.391,178.711,11.719,-1.953
1641936955.927,42.969,24.902,183.594,20.020,-11.719
1641936955.931,19.531,19.043,166.992,8.301,2.930
1641936955.935,28.809,20.508,155.273,-0.977,-2.441
1641936955.939,44.922,25.879,16.113,9.766,-36.621
1641936955.943,36.621,29.297,-36.133,34.180,-54.688
1641936955.946,13.184,28.320,-271.973,20.020,-28.809
1641936955.950,28.809,37.109,-321.777,-0.977,-28.320
1641936955.954,59.570,51.758,91.309,4.395,-22.461
1641936955.958,71.777,49.805,96.191,25.879,-3.418
1641936955.962,75.684,51.270,49.805,48.828,15.137
1641936955.966,62.012,50.293,157.227,35.645,16.602
1641936955.983,53.223,46.387,170.898,21.973,2.441
1641936955.987,55.664,44.922,95.703,41.992,-14.648
1641936955.991,46.875,43.457,77.637,62.500,-2.441
1641936955.995,33.203,42.480,98.145,52.734,3.906
1641936955.999,36.621,37.109,83.984,43.457,-9.277
1641936956.003,48.828,29.297,-107.422,71.777,-39.062
1641936956.006,56.152,30.762,-112.793,98.633,-6.836
1641936956.010,50.781,34.180,144.531,91.309,42.480
1641936956.014,51.758,36.133,264.648,80.566,-22.461
1641936956.018,60.059,21.484,78.125,96.680,-91.309
1641936956.022,55.176,18.555,-36.133,114.746,-55.664
1641936956.026,40.039,25.391,247.070,102.539,-15.137
1641936956.028,35.156,19.043,272.461,81.055,-55.664
1641936956.032,60.059,17.578,194.824,84.473,-27.832
1641936956.036,71.289,19.043,282.227,95.703,17.578
1641936956.040,47.363,24.414,416.504,85.938,45.410
1641936956.044,33.691,26.855,375.488,60.547,58.105
1641936956.048,45.898,30.273,208.496,54.688,9.766
1641936956.051,53.223,37.598,102.051,82.031,-31.250
1641936956.055,36.621,32.715,191.895,87.891,-7.324
1641936956.059,11.230,17.578,183.594,54.688,-34.180
1641936956.063,11.230,20.020,-132.812,34.180,-79.590
1641936956.067,42.969,41.016,-31.250,54.199,-20.508
1641936956.071,48.828,49.316,313.965,68.359,33.691
1641936956.073,7.324,33.203,215.332,44.434,41.504
1641936956.077,2.930,31.250,133.789,25.391,28.809
1641936956.081,28.809,39.551,314.453,37.598,40.039
1641936956.085,32.715,29.785,362.305,55.176,46.387
1641936956.089,13.672,23.926,197.266,37.109,-16.602
1641936956.093,10.742,28.809,31.250,14.160,-51.758
1641936956.096,46.387,33.691,15.625,31.738,-48.828
1641936956.100,63.965,42.969,188.477,55.176,-25.391
1641936956.104,35.645,35.645,71.289,48.340,9.277
1641936956.108,19.531,33.691,-205.078,28.809,-42.480
1641936956.112,36.133,47.852,62.500,36.621,-52.246
1641936956.116,36.133,44.434,190.918,46.387,-16.113
1641936956.118,18.555,32.227,28.809,37.598,-1.953
1641936956.122,2.441,32.227,-67.871,22.461,-15.137
1641936956.126,20.020,41.016,116.211,20.996,22.949
1641936956.130,41.504,35.156,153.320,34.180,29.297
1641936956.134,31.250,28.320,-5.859,35.645,0.977
1641936956.138,5.859,25.391,-60.059,20.020,-0.977
1641936956.141,11.719,29.297,-46.387,16.602,28.809
1641936956.145,43.457,31.250,-13.672,28.320,20.020
1641936956.149,36.621,26.367,-204.102,34.668,-27.344
1641936956.153,19.531,33.691,-139.648,21.973,-26.367
1641936956.157,17.578,39.551,174.316,4.883,3.418
1641936956.161,19.043,29.785,93.262,13.184,8.789
1641936956.163,22.461,31.738,97.168,45.898,-17.578
1641936956.167,6.348,39.551,229.004,51.758,6.348
1641936956.171,-29.785,34.180,209.961,13.672,23.926
1641936956.175,-44.434,33.203,94.238,-6.348,-0.488
1641936956.179,-33.691,32.715,78.125,8.789,-23.926
1641936956.183,-42.480,36.133,77.148,12.207,-49.316
1641936956.186,-56.152,44.434,123.047,0.488,-44.434
1641936956.190,-54.688,28.320,-20.508,-10.742,-73.242
1641936956.194,-36.621,21.973,-304.199,4.395,-119.141
1641936956.198,-17.090,35.156,31.738,35.645,-60.059
1641936956.202,-29.297,30.273,184.570,27.832,-1.465
1641936956.206,-26.367,34.180,70.801,17.090,34.668
1641936956.208,17.090,42.480,97.168,30.762,72.266
1641936956.212,40.039,42.480,115.723,46.875,49.805
1641936956.216,15.137,35.645,66.895,45.898,16.113
1641936956.220,6.348,30.762,-11.230,27.832,-34.668
1641936956.224,38.574,28.809,1.465,31.250,-47.363
1641936956.228,55.664,25.391,-95.703,40.039,-41.992
1641936956.231,37.598,28.320,-187.500,34.180,-34.668
1641936956.235,14.648,28.809,-445.312,17.090,-52.734
1641936956.239,28.809,38.086,-480.957,17.578,-48.828
1641936956.243,51.270,41.992,-39.551,44.922,-3.418
1641936956.247,40.527,38.574,2.930,42.969,-34.180
1641936956.251,20.996,46.875,-99.121,12.695,-50.781
1641936956.253,27.832,47.852,-16.602,6.348,-16.113
1641936956.257,48.340,40.039,36.133,25.391,-20.996
1641936956.261,46.875,39.551,-13.672,41.504,-4.883
1641936956.265,17.090,40.527,-46.387,21.484,36.621
1641936956.269,6.348,35.156,-29.785,0.000,29.297
1641936956.273,21.484,32.227,-82.520,23.926,-1.953
1641936956.276,20.508,26.855,-232.422,46.875,-24.414
1641936956.280,-0.488,31.250,-288.086,37.598,-1.953
1641936956.284,-1.953,35.645,-12.695,17.578,50.781
1641936956.288,19.531,29.297,39.551,28.809,38.086
1641936956.292,30.762,31.250,-106.934,51.758,7.324
1641936956.296,19.531,36.621,-30.273,49.316,40.527
1641936956.298,11.719,39.062,117.188,35.645,79.102
1641936956.302,24.902,33.691,60.547,26.855,44.922
1641936956.306,53.223,39.551,44.434,49.316,52.246
1641936956.310,56.641,48.828,68.359,67.383,75.684
1641936956.314,26.367,44.434,56.152,43.945,72.754
1641936956.318,13.672,36.621,-98.145,26.855,87.402
1641936956.321,28.809,31.738,-366.699,34.180,86.914
1641936956.325,34.180,42.969,-210.449,50.293,84.473
1641936956.329,13.184,46.875,99.609,38.086,55.176
1641936956.333,0.000,33.691,-11.719,14.648,21.484
1641936956.337,14.160,35.156,-6.348,27.832,74.707
1641936956.341,16.113,40.527,117.188,37.598,69.824
1641936956.343,-0.977,35.156,85.449,28.320,33.691
1641936956.347,-5.859,23.926,-22.461,18.555,29.297
1641936956.351,20.996,24.414,-83.008,18.555,31.250
1641936956.355,52.246,34.668,102.539,37.109,42.969
1641936956.359,34.668,31.738,149.902,46.875,-11.719
1641936956.363,-9.277,23.438,-141.113,25.879,-32.715
1641936956.366,-19.043,33.691,-270.996,7.812,-20.996
1641936956.370,-17.090,35.156,65.918,21.484,16.113
1641936956.374,-36.621,16.113,150.391,33.691,45.410
1641936956.378,-40.527,17.578,1.953,28.320,32.715
1641936956.382,-22.949,25.391,-23.926,29.297,3.418
1641936956.386,14.648,31.250,148.438,52.246,42.480
1641936956.403,31.738,30.762,227.539,68.848,51.758
1641936956.407,7.812,25.391,142.090,55.176,51.270
1641936956.411,9.766,24.414,30.762,42.969,84.961
1641936956.415,50.781,36.133,51.758,67.871,81.055
1641936956.419,67.383,43.945,167.480,87.402,68.848
1641936956.423,36.133,37.109,-192.383,66.406,41.016
1641936956.426,32.715,54.688,-234.863,41.992,57.129
1641936956.430,55.664,63.965,155.273,38.086,65.430
1641936956.434,54.199,43.457,83.984,46.875,46.387
1641936956.438,31.738,43.945,-73.730,43.945,31.250
1641936956.442,19.531,59.570,99.121,18.066,82.031
1641936956.446,15.625,49.316,156.250,2.930,89.844
1641936956.448,21.973,37.598,-2.930,17.090,55.176
1641936956.452,20.996,43.457,-20.020,30.273,58.594
1641936956.456,-5.859,49.805,56.152,15.625,53.711
1641936956.460,-8.789,46.875,93.750,3.418,62.500
1641936956.464,4.395,38.086,-48.340,12.695,37.598
1641936956.468,7.812,41.504,-227.539,26.855,-4.395
1641936956.471,-1.953,45.410,-214.355,28.809,4.883
1641936956.475,-6.836,45.410,-94.238,16.113,53.223
1641936956.479,0.000,29.297,-190.918,18.555,29.297
1641936956.483,17.090,22.461,-416.016,35.156,-20.996
1641936956.487,34.668,38.574,-88.867,42.480,51.758
1641936956.491,8.301,31.738,112.305,32.715,78.613
1641936956.493,-2.930,29.297,42.969,36.133,61.035
1641936956.497,23.926,34.668,49.805,59.082,53.711
1641936956.501,18.066,39.551,109.863,55.176,33.203
1641936956.505,-12.695,36.621,92.773,30.273,6.836
1641936956.509,-6.836,33.203,-27.832,23.926,-29.785
1641936956.513,12.207,37.598,-141.602,38.086,-28.809
1641936956.516,14.160,47.363,-83.496,53.223,20.020
1641936956.520,8.301,45.410,77.148,30.762,73.730
1641936956.524,7.324,21.973,-309.082,6.836,32.227
1641936956.528,25.879,32.227,-426.758,25.879,3.906
1641936956.532,42.969,44.434,37.109,48.828,51.758
1641936956.536,33.203,35.645,55.176,37.109,79.102
1641936956.568,16.113,38.574,14.160,-2.930,99.609
1641936956.572,34.180,47.363,166.504,-3.418,84.961
1641936956.576,53.223,50.781,208.984,27.344,74.707
1641936956.580,27.832,44.922,61.035,24.902,27.832
1641936956.584,15.137,42.480,32.227,12.695,1.953
1641936956.588,34.180,42.480,-9.766,11.719,11.719
1641936956.591,57.617,45.410,13.672,25.879,14.160
1641936956.595,52.734,40.039,-21.484,40.039,30.273
1641936956.599,38.086,34.668,-230.469,22.949,25.879
1641936956.603,51.758,36.133,82.031,20.508,66.406
1641936956.607,59.082,26.855,207.031,32.715,91.309
1641936956.611,41.992,24.414,48.340,34.180,64.941
1641936956.583,24.902,25.879,20.996,26.367,57.129
1641936956.587,28.809,26.367,101.074,19.043,62.500
1641936956.591,37.598,21.484,69.336,22.461,50.781
1641936956.595,41.016,22.461,-18.066,26.367,63.477
1641936956.599,20.020,26.367,58.594,23.926,63.477
1641936956.603,9.277,24.414,36.621,9.277,31.738
1641936956.606,30.762,28.809,-97.656,9.277,34.180
1641936956.610,39.062,36.621,-40.039,32.715,75.684
1641936956.614,33.203,37.109,106.934,37.598,87.402
1641936956.618,18.555,26.367,146.484,24.414,42.480
1641936956.622,16.113,17.090,48.828,20.996,-1.953
1641936956.626,30.762,21.484,-38.574,35.645,-9.277
1641936956.629,35.645,39.062,118.652,54.688,29.785
1641936956.633,25.879,36.621,124.023,42.480,52.734
1641936956.637,17.578,23.438,-76.172,28.809,8.789
1641936956.641,22.461,30.273,-415.527,43.945,-36.621
1641936956.645,38.574,48.828,-266.602,62.988,0.000
1641936956.649,25.879,42.969,12.695,52.246,3.906
1641936956.652,11.719,30.762,-218.262,29.785,-46.387
1641936956.656,42.969,46.875,-225.098,38.086,-55.664
1641936956.660,67.383,55.664,106.934,57.129,5.371
1641936956.664,49.805,44.434,247.559,48.340,44.922
1641936956.668,30.762,49.316,26.855,23.926,48.340
1641936956.672,48.828,45.898,-113.770,25.879,24.414
1641936956.673,75.195,44.434,80.078,47.852,17.090
1641936956.677,60.547,46.387,212.402,55.176,60.547
1641936956.681,32.227,37.598,107.422,33.691,51.758
1641936956.685,44.434,41.992,70.312,18.066,26.855
1641936956.689,69.336,40.527,97.656,31.738,51.270
1641936956.693,56.641,35.645,-51.758,45.898,34.180
1641936956.696,24.414,37.109,-290.527,32.715,18.555
1641936956.700,27.344,45.410,-317.383,19.043,16.113
1641936956.704,63.477,50.293,81.543,35.645,83.496
1641936956.708,61.035,43.945,107.910,47.852,106.934
1641936956.712,27.832,49.316,62.500,40.039,99.609
1641936956.716,22.461,52.246,181.641,20.996,94.238
1641936956.733,38.086,49.805,179.199,23.926,55.664
1641936956.737,37.598,43.457,98.145,42.969,35.645
1641936956.741,19.531,42.480,97.168,42.480,61.523
1641936956.745,14.648,47.363,126.465,32.715,76.172
1641936956.749,30.762,47.852,177.246,33.691,69.336
1641936956.753,42.969,36.133,-49.316,53.711,69.824
1641936956.756,32.227,36.621,-178.711,54.688,61.035
1641936956.760,16.602,46.875,68.848,37.109,80.078
1641936956.764,30.762,43.457,142.090,30.273,72.754
1641936956.768,53.223,44.922,15.625,43.457,21.484
1641936956.772,51.270,55.664,-4.883,63.965,22.949
1641936956.776,30.273,55.664,187.012,50.293,64.453
1641936956.778,24.902,46.875,213.379,35.156,59.570
1641936956.782,41.016,40.039,-67.871,51.270,12.695
1641936956.786,42.480,39.062,-129.395,62.012,19.043
1641936956.790,28.809,41.016,124.512,48.828,97.168
1641936956.794,22.949,38.574,121.582,21.973,155.273
1641936956.798,32.715,27.344,-36.133,21.484,161.621
1641936956.801,49.805,32.715,-180.664,43.945,73.730
1641936956.805,43.457,51.270,-55.176,42.969,86.914
1641936956.809,33.203,48.828,96.680,29.785,140.137
1641936956.813,44.434,39.062,-241.211,13.184,93.750
1641936956.817,65.918,52.246,-309.082,25.879,63.965
1641936956.821,64.453,57.129,57.129,48.828,74.707
1641936956.822,39.062,36.621,-33.203,28.320,68.848
1641936956.826,44.434,33.203,-204.102,18.066,58.594
1641936956.830,72.754,44.922,22.949,28.809,82.031
1641936956.834,70.312,40.039,82.031,38.086,88.867
1641936956.838,41.504,32.227,-114.258,30.273,55.664
1641936956.842,33.691,36.621,-238.281,18.066,26.855
1641936956.845,57.129,43.945,-228.516,38.086,62.988
1641936956.849,67.871,39.062,-53.223,50.293,132.812
1641936956.853,41.016,28.320,-143.555,36.133,126.465
1641936956.857,25.879,37.109,-363.281,27.344,73.730
1641936956.861,49.316,47.363,-85.449,30.273,94.238
1641936956.865,69.336,40.039,66.895,42.969,125.977
1641936956.868,55.176,42.480,-53.711,42.969,83.984
1641936956.872,27.344,53.223,-159.180,27.344,47.363
1641936956.876,38.574,60.059,-19.531,28.320,104.004
1641936956.880,57.129,44.434,8.301,49.316,91.797
1641936956.884,49.805,42.969,-127.441,63.965,22.949
1641936956.888,29.297,54.199,-200.684,39.551,38.574
1641936956.891,30.273,50.293,-190.430,24.902,55.664
1641936956.895,56.641,45.410,-15.137,44.922,82.031
1641936956.899,48.828,38.574,-241.211,55.664,65.918
1641936956.903,21.973,52.246,-240.723,44.922,47.852
1641936956.907,17.090,52.246,63.477,25.391,76.660
1641936956.911,36.621,36.133,-87.891,31.250,51.270
1641936956.913,48.828,34.668,-110.352,55.664,23.438
1641936956.917,29.297,36.133,0.977,46.387,22.949
1641936956.921,14.160,35.645,69.336,19.043,64.941
1641936956.925,21.484,29.785,-22.949,8.789,79.590
1641936956.929,33.691,30.273,-174.805,20.020,39.062
1641936956.933,23.926,28.809,-161.621,27.344,33.203
1641936956.936,17.090,35.645,-84.961,12.207,31.250
1641936956.940,29.297,36.133,-197.754,4.395,-6.836
1641936956.944,52.246,29.297,-492.188,11.719,-37.109
1641936956.948,61.523,42.480,-222.168,20.020,-30.273
1641936956.952,41.504,39.551,-4.395,10.742,-30.762
1641936956.956,30.762,38.574,-91.797,0.488,3.906
1641936956.957,45.898,37.598,-21.973,7.812,35.156
1641936956.961,46.875,33.691,82.031,18.066,41.016
1641936956.965,7.324,33.691,73.242,9.766,17.578
1641936956.969,-6.836,32.227,-17.090,-10.254,8.789
1641936956.973,9.766,34.180,-26.367,-0.977,39.062
1641936956.977,9.277,32.227,-109.863,10.742,53.223
1641936956.980,3.906,37.598,-166.016,2.441,64.453
1641936956.984,-1.465,34.180,-384.766,-4.883,58.594
1641936956.988,17.090,41.504,-472.656,-7.812,51.270
1641936956.992,41.016,55.176,-16.602,16.113,81.543
1641936956.996,26.367,39.062,-4.883,22.461,60.547
1641936957.000,0.488,40.039,-63.965,1.465,67.383
1641936957.003,8.301,53.223,91.797,3.906,111.328
1641936957.007,33.203,52.246,119.141,23.438,100.098
1641936957.011,26.855,41.016,-2.441,40.527,61.523
1641936957.015,0.488,39.062,-65.918,27.832,61.035
1641936957.019,0.488,42.480,4.883,9.277,70.801
1641936957.023,23.438,38.574,-66.895,20.996,65.430
1641936957.026,20.996,30.762,-264.648,31.250,73.242
1641936957.030,-4.395,34.180,-358.398,18.066,78.125
1641936957.034,-12.207,41.992,-83.008,-7.812,98.145
1641936957.038,2.441,30.273,-51.758,-6.348,97.168
1641936957.042,14.160,28.320,-273.438,16.602,89.844
1641936957.046,1.953,33.203,-204.102,9.277,100.586
1641936957.047,-12.695,27.832,16.602,-11.230,122.559
1641936957.051,5.859,24.902,34.180,-19.043,121.582
1641936957.055,29.785,24.414,-62.012,-0.977,105.957
1641936957.059,18.555,25.879,-34.180,12.695,87.402
1641936957.063,-1.953,30.762,26.367,-11.230,63.965
1641936957.067,7.812,25.879,-79.590,-20.020,46.875
1641936957.070,39.062,20.996,-404.297,-16.113,-11.719
1641936957.074,51.270,37.109,-371.582,-4.883,-18.066
1641936957.078,35.645,46.875,-10.254,9.766,34.668
1641936957.082,36.621,39.551,-54.688,-1.465,24.414
1641936957.086,56.152,31.250,-175.293,4.883,4.883
1641936957.090,60.547,30.762,-94.727,28.809,55.176
1641936957.094,42.480,35.645,-46.875,24.414,52.734
1641936957.098,17.090,30.273,-198.730,15.625,14.160
1641936957.102,28.320,35.645,-243.164,24.414,49.805
1641936957.106,48.828,43.945,-89.355,44.434,38.574
1641936957.110,30.762,40.039,25.879,48.340,48.340
1641936957.114,-2.441,28.320,-240.234,29.297,88.867
1641936957.117,13.184,28.809,-357.422,31.250,63.477
1641936957.121,47.363,41.016,11.719,43.945,50.781
1641936957.125,39.551,36.621,56.152,46.387,57.129
1641936957.129,6.836,30.762,-144.531,22.461,86.914
1641936957.133,9.766,30.762,-109.863,9.766,115.723
1641936957.137,47.363,24.414,34.180,31.738,63.477
1641936957.152,48.828,21.484,28.809,44.922,45.410
1641936957.156,24.902,23.926,27.344,36.133,104.980
1641936957.160,12.695,26.367,5.371,16.602,98.633
1641936957.164,38.574,31.250,-86.426,23.926,34.668
1641936957.168,57.617,38.086,5.859,50.293,21.973
1641936957.172,34.180,35.156,-249.512,44.922,12.207
1641936957.175,30.762,44.922,-446.289,23.926,-26.367
1641936957.179,58.105,54.199,-20.508,22.949,-9.766
1641936957.183,65.918,41.504,12.207,44.922,-3.418
1641936957.187,40.039,42.480,-137.207,47.363,-6.836
1641936957.191,20.996,49.805,-20.996,33.691,-6.836
1641936957.195,36.133,45.410,62.500,26.855,22.949
1641936957.198,42.969,37.598,-75.195,34.180,13.184
1641936957.202,33.203,38.574,-84.473,54.688,11.230
1641936957.206,19.043,42.969,74.219,49.316,52.246
1641936957.210,21.484,39.062,53.711,33.691,9.277
1641936957.214,48.340,41.504,-35.645,49.805,5.371
1641936957.218,46.387,40.039,-145.508,61.523,60.547
1641936957.221,18.555,42.480,-211.426,48.340,57.617
1641936957.225,1.465,52.246,-86.914,27.344,42.480
1641936957.229,-9.766,32.715,-117.188,23.438,47.363
1641936957.233,-13.184,28.809,-451.660,27.344,-8.789
1641936957.237,-20.508,49.805,-178.711,31.738,15.625
1641936957.241,-35.645,36.621,150.879,26.367,49.316
1641936957.243,-13.672,22.949,60.547,20.996,44.434
1641936957.247,13.184,20.020,72.754,40.527,59.570
1641936957.251,5.371,18.066,164.062,42.480,38.574
1641936957.255,-15.137,24.902,93.262,20.996,38.086
1641936957.259,-9.277,31.250,-12.207,20.020,46.875
1641936957.263,20.508,32.227,-121.582,36.621,2.441
1641936957.266,26.855,37.598,-48.828,51.758,31.250
1641936957.270,6.836,34.668,162.598,38.086,91.309
1641936957.274,0.488,19.043,-188.477,19.043,77.637
1641936957.278,30.762,29.785,-287.598,38.086,68.359
1641936957.282,45.898,41.504,147.949,61.035,101.562
1641936957.286,20.020,36.621,109.863,56.152,108.398
1641936957.302,13.184,46.875,-6.836,33.691,98.145
1641936957.306,34.668,53.223,86.426,37.109,86.426
1641936957.310,40.527,44.434,133.301,63.477,90.820
1641936957.314,17.578,40.527,57.129,58.594,134.766
1641936957.318,-2.441,42.969,0.977,29.297,136.719
1641936957.322,5.371,39.062,-94.727,10.742,51.270
1641936957.325,26.367,40.039,-103.516,30.273,0.977
1641936957.329,12.695,35.645,-149.902,48.828,36.621
1641936957.333,-1.953,40.039,-356.934,25.391,27.344
1641936957.337,20.508,56.641,-102.051,19.531,29.785
1641936957.341,42.480,52.246,106.934,38.086,81.055
1641936957.345,42.480,43.945,-9.766,46.875,85.938
1641936957.333,21.973,38.086,0.977,29.297,64.941
1641936957.337,19.531,31.250,97.168,4.883,44.922
1641936957.341,53.223,30.273,57.617,20.996,54.688
1641936957.345,65.918,29.297,11.719,43.457,93.750
1641936957.349,37.598,26.855,90.820,41.016,124.512
1641936957.353,10.742,23.926,41.504,26.855,111.816
1641936957.356,8.301,20.020,-159.668,26.367,67.871
1641936957.360,37.598,27.344,-142.090,47.852,69.824
1641936957.364,40.039,31.250,40.039,43.945,90.332
1641936957.368,4.395,26.855,94.238,22.461,40.039
1641936957.372,3.418,20.020,-18.555,17.090,1.953
1641936957.376,26.855,23.438,-296.387,28.320,-10.254
1641936957.378,30.273,41.504,-170.898,40.527,-9.766
1641936957.382,0.488,41.504,125.977,25.391,35.156
1641936957.386,3.906,36.133,-88.867,16.602,35.156
1641936957.390,43.945,44.434,-200.195,41.016,-2.441
1641936957.394,44.434,38.574,68.848,57.617,6.348
1641936957.398,25.879,21.973,72.754,48.828,17.090
1641936957.401,28.809,20.996,-151.855,24.902,34.180
1641936957.405,35.645,21.484,-262.207,17.090,44.922
1641936957.409,39.551,24.414,50.781,37.109,22.461
1641936957.413,30.762,25.879,187.988,34.668,52.246
1641936957.417,19.531,28.320,75.195,9.277,57.617
1641936957.421,33.691,30.762,38.574,-6.836,-0.488
1641936957.437,51.270,36.133,104.980,11.230,-5.859
1641936957.441,32.227,29.297,170.410,25.879,22.949
1641936957.445,7.324,26.855,64.941,13.184,-7.812
1641936957.449,21.484,38.086,63.477,13.672,-12.207
1641936957.453,32.715,34.180,71.777,34.668,11.230
1641936957.457,19.531,25.391,-64.453,47.852,5.371
1641936957.460,-3.906,23.438,-316.406,36.621,25.879
1641936957.464,-0.488,38.574,-294.434,25.879,20.508
1641936957.468,27.344,44.434,37.109,41.504,16.602
1641936957.472,29.297,27.832,0.488,53.711,19.531
1641936957.476,7.324,27.832,-184.082,45.410,5.371
1641936957.480,12.207,40.039,-56.152,26.367,39.062
1641936957.482,34.180,45.410,117.676,25.391,46.387
1641936957.486,35.156,41.504,42.480,43.945,47.363
1641936957.490,14.160,32.715,0.000,31.738,22.949
1641936957.494,8.301,35.156,35.156,14.648,-37.109
1641936957.498,28.809,32.227,81.055,20.996,-1.465
1641936957.502,44.922,21.484,-92.285,38.574,23.438
1641936957.505,34.668,26.367,-106.934,44.434,52.734
1641936957.509,18.066,29.785,33.691,18.555,110.352
1641936957.513,30.273,36.133,18.555,11.230,87.891
1641936957.517,48.828,33.691,-74.707,32.715,77.148
1641936957.521,38.086,24.414,-362.793,36.621,23.926
1641936957.525,25.391,40.527,-153.809,24.902,-8.789
1641936957.528,30.762,41.992,99.609,16.113,0.977
1641936957.532,54.688,38.086,88.867,32.715,38.574
1641936957.536,65.918,39.551,107.422,49.805,80.078
1641936957.540,32.227,34.668,149.414,37.109,57.617
1641936957.544,13.672,30.273,136.230,13.672,56.152
1641936957.548,32.715,23.926,-32.715,13.672,35.645
1641936957.551,48.340,31.250,-108.887,45.898,30.273
1641936957.555,39.062,48.828,40.039,54.688,94.727
1641936957.559,24.902,45.898,102.051,36.133,100.098
1641936957.563,34.668,39.062,-127.930,25.879,52.734
1641936957.567,51.758,41.992,-136.719,39.551,28.320
1641936957.571,41.504,42.969,101.562,54.199,55.176
1641936957.572,17.578,41.504,58.105,40.527,74.219
1641936957.576,17.090,35.645,-45.410,33.203,45.898
1641936957.580,39.062,32.715,79.102,37.109,72.266
1641936957.584,36.133,31.250,146.973,45.898,91.309
1641936957.588,7.812,32.715,104.004,44.922,62.500
1641936957.592,-0.488,30.762,-68.848,22.461,19.531
1641936957.595,22.461,30.273,-131.348,29.785,5.371
1641936957.599,36.621,40.527,76.660,43.457,8.789
1641936957.603,16.113,27.344,-45.410,33.203,-28.809
1641936957.607,2.930,25.391,-302.734,29.297,-29.785
1641936957.611,28.809,43.945,43.945,37.598,17.090
1641936957.615,45.898,41.016,185.547,57.617,29.785
1641936957.619,25.391,41.504,115.234,54.199,46.875
1641936957.623,12.695,43.945,53.223,30.273,68.848
1641936957.627,31.250,47.363,73.730,32.715,48.828
1641936957.631,53.223,40.527,119.629,45.898,32.227
1641936957.635,41.016,35.645,-34.668,50.293,53.223
1641936957.639,16.602,38.086,-102.051,27.832,46.875
1641936957.642,22.461,41.992,-74.707,12.207,52.734
1641936957.646,49.805,49.805,5.859,31.250,61.523
1641936957.650,44.434,40.039,-208.008,41.504,63.477
1641936957.654,23.438,40.039,-217.285,23.926,111.328
1641936957.658,31.250,52.734,124.512,5.859,134.277
1641936957.662,41.016,48.828,49.316,20.020,90.332
1641936957.692,43.457,42.969,20.996,46.875,100.586
1641936957.696,34.180,44.434,116.211,43.945,88.379
1641936957.700,23.926,46.387,127.441,34.180,22.949
1641936957.704,34.668,42.480,20.996,29.785,-27.344
1641936957.708,39.551,47.852,-44.922,47.363,19.531
1641936957.712,16.113,48.828,-18.555,54.199,37.109
1641936957.715,-3.418,43.945,-30.273,28.809,-2.441
1641936957.719,0.977,30.273,-75.684,21.973,46.387
1641936957.723,15.137,27.344,-402.832,28.809,28.809
1641936957.727,23.438,47.363,-217.773,37.598,14.648
1641936957.731,6.348,38.086,134.277,32.227,41.504
1641936957.735,2.930,24.414,64.941,18.066,44.922
1641936957.708,29.785,28.320,62.012,25.391,32.227
1641936957.712,40.527,33.203,186.035,35.156,46.875
1641936957.716,20.508,31.250,136.719,20.996,37.109
1641936957.720,20.996,34.180,0.000,6.836,1.465
1641936957.724,49.316,39.062,36.621,10.254,41.504
1641936957.728,50.293,34.668,-28.809,17.578,15.625
1641936957.731,20.996,35.156,-91.309,14.648,-5.859
1641936957.735,2.441,35.645,-95.703,-4.395,20.020
1641936957.739,21.973,32.227,-19.043,-6.348,32.227
1641936957.743,46.875,26.367,144.043,25.879,57.617
1641936957.747,27.832,23.926,126.953,41.016,67.871
1641936957.751,6.348,27.832,26.367,20.020,68.848
1641936957.753,19.531,33.203,110.840,11.719,92.285
1641936957.757,39.062,30.273,148.438,33.203,49.805
1641936957.761,29.785,19.531,78.125,53.223,-2.441
1641936957.765,-1.465,11.230,-285.645,31.738,-16.602
1641936957.769,6.348,20.996,-184.570,9.277,27.832
1641936957.773,33.203,19.531,24.414,26.367,39.551
1641936957.776,30.762,15.137,-196.777,46.875,13.672
1641936957.780,9.766,25.879,-201.172,35.645,2.441
1641936957.784,15.137,39.062,120.605,12.695,23.926
1641936957.788,35.156,23.926,156.738,13.184,21.484
1641936957.792,45.410,20.020,-44.434,37.109,17.090
1641936957.796,35.645,22.949,-0.977,42.480,25.879
1641936957.797,21.484,15.137,125.977,28.809,19.043
1641936957.801,37.598,14.648,123.535,32.715,31.738
1641936957.805,45.898,14.648,69.824,49.316,6.836
1641936957.809,32.227,23.926,124.023,58.105,4.395
1641936957.813,14.160,27.832,162.109,40.527,34.180
1641936957.817,15.137,20.996,55.664,31.250,44.434
1641936957.820,33.691,19.531,-182.129,42.480,20.996
1641936957.824,36.133,27.344,-97.168,45.410,12.207
1641936957.828,20.020,31.250,255.371,40.039,71.289
1641936957.832,14.648,24.902,154.785,21.973,74.707
1641936957.836,41.504,27.832,90.332,25.879,54.199
1641936957.840,51.758,33.203,239.258,35.645,91.797
1641936957.843,25.879,33.203,211.914,26.855,117.188
1641936957.847,15.137,23.438,15.625,13.184,31.250
1641936957.851,35.156,19.531,-29.785,11.719,-13.184
1641936957.855,42.969,18.066,163.574,29.297,-4.395
1641936957.859,20.020,18.066,223.145,24.414,1.953
1641936957.863,-15.625,19.043,-69.336,-0.488,-10.254
1641936957.866,-7.324,25.879,-217.285,-3.906,-17.578
1641936957.870,20.996,30.762,90.332,10.254,0.977
1641936957.874,8.789,21.973,236.816,16.602,2.930
1641936957.878,-17.578,24.414,69.824,-2.441,12.695
1641936957.882,-10.254,28.809,-60.059,-17.090,-0.488
1641936957.886,22.949,24.414,118.164,1.465,1.953
1641936957.903,21.484,13.184,181.152,19.531,-6.348
1641936957.907,1.953,16.113,106.445,11.230,-20.996
1641936957.911,1.953,18.066,78.613,-17.090,2.930
1641936957.915,21.973,15.137,36.621,-10.742,29.785
1641936957.919,27.832,19.043,72.754,16.113,25.879
1641936957.923,-3.418,9.277,-178.711,2.930,37.109
1641936957.926,-13.184,13.184,-292.969,-18.555,10.742
1641936957.930,21.973,28.320,87.891,-17.090,18.066
1641936957.934,37.598,15.625,56.641,2.930,-6.836
1641936957.938,19.043,12.695,-70.801,9.277,-17.090
1641936957.942,12.207,23.438,58.105,-7.812,15.625
1641936957.946,26.855,17.578,91.797,-12.207,7.812
1641936957.948,36.621,15.137,-10.742,4.883,2.930
1641936957.952,33.691,24.902,30.762,20.996,-1.465
1641936957.956,12.207,35.156,192.383,12.207,18.555
1641936957.960,13.184,35.645,169.922,3.418,43.457
1641936957.964,50.781,27.344,52.246,23.438,27.832
1641936957.968,55.664,17.090,-79.590,37.109,23.926
1641936957.971,26.367,18.555,-102.539,27.832,0.000
1641936957.975,22.461,26.855,0.488,19.043,-44.434
1641936957.979,44.434,24.414,-89.355,28.320,-34.180
1641936957.983,59.082,26.855,-333.008,45.410,-10.254
1641936957.987,55.176,39.551,-56.641,45.410,20.020
1641936957.991,39.551,35.645,132.812,27.832,23.438
1641936957.993,42.969,34.668,14.160,24.414,41.992
1641936957.997,60.547,39.551,19.043,43.457,41.504
1641936958.001,52.734,44.434,139.160,48.828,78.613
1641936958.005,29.297,45.898,106.934,25.879,92.773
1641936958.009,27.344,42.969,-46.875,15.625,51.758
1641936958.013,47.363,34.668,-133.301,35.156,32.715
1641936958.016,40.039,33.203,-85.449,44.922,50.781
1641936958.020,8.789,36.621,8.301,24.414,61.035
1641936958.024,2.930,33.203,-346.191,5.371,3.418
1641936958.028,25.391,44.922,-401.367,14.648,-19.043
1641936958.032,34.668,46.875,67.383,37.109,74.707
1641936958.036,3.906,34.180,50.781,30.762,81.055
1641936958.039,-8.301,35.645,-19.043,12.207,39.551
1641936958.043,16.602,37.109,115.234,18.066,75.195
1641936958.047,21.484,26.367,162.598,34.668,103.027
1641936958.051,-2.441,24.414,99.121,33.691,92.773
1641936958.055,-16.113,33.691,52.246,14.160,60.059
1641936958.059,5.371,35.645,-24.414,14.648,53.223
1641936958.062,30.273,44.922,34.180,38.086,41.016
1641936958.066,11.719,44.922,-37.598,45.898,-9.277
1641936958.070,-14.648,42.480,-232.422,20.020,6.836
1641936958.074,3.418,54.199,19.043,11.719,56.641
1641936958.078,35.156,51.270,168.457,32.227,38.574
1641936958.082,26.367,35.645,-100.098,43.945,-21.973
1641936958.083,3.418,36.133,-231.934,34.180,-20.508
1641936958.087,15.137,42.969,73.730,27.344,15.625
1641936958.091,37.598,40.039,122.070,49.805,8.301
1641936958.095,41.504,41.016,46.875,61.035,23.438
1641936958.099,18.066,35.156,82.031,49.805,50.781
1641936958.103,8.301,30.273,-16.113,43.457,2.930
1641936958.106,29.297,28.320,-85.449,45.410,-3.906
1641936958.110,35.156,20.996,-205.078,62.988,28.320
1641936958.114,26.855,34.180,-159.180,54.688,28.320
1641936958.118,21.973,37.109,120.605,32.715,20.996
1641936958.122,29.785,16.602,55.176,39.062,-5.859
1641936958.126,48.340,16.113,-8.301,54.199,-27.344
1641936958.129,39.062,20.996,101.074,59.082,0.488
1641936958.133,7.324,17.090,157.227,36.133,32.227
1641936958.137,-3.418,13.184,-83.984,22.949,12.695
1641936958.141,18.555,25.391,-134.277,45.898,17.578
1641936958.145,30.762,42.969,192.383,64.941,66.895
1641936958.149,10.254,33.691,142.578,50.781,46.387
1641936958.152,-2.930,15.137,-139.160,21.973,16.602
1641936958.156,19.043,19.043,-202.637,28.809,8.789
1641936958.160,45.410,34.668,127.930,58.105,26.855
1641936958.164,26.855,28.809,280.762,54.688,66.406
1641936958.168,13.184,27.832,165.527,37.109,62.988
1641936958.172,39.062,34.180,157.227,34.180,66.406
1641936958.173,59.570,30.762,170.898,49.805,20.020
1641936958.177,46.387,32.227,208.008,65.918,8.789
1641936958.181,14.160,28.320,234.375,41.992,64.941
1641936958.185,10.254,27.832,221.191,19.531,77.637
1641936958.189,34.180,37.598,338.379,41.504,36.621
1641936958.193,22.949,23.438,395.996,61.035,40.527
1641936958.196,-11.719,19.531,115.723,34.180,14.160
1641936958.200,20.020,51.758,314.453,36.621,-26.855
1641936958.204,74.219,61.523,935.547,73.242,27.344
1641936958.208,70.801,43.457,-989.258,74.707,18.066
1641936958.212,53.711,48.340,981.934,71.777,24.414
1641936958.216,55.664,52.246,-998.047,72.266,51.758
1641936958.217,92.285,51.758,999.512,96.680,19.531
1641936958.221,122.070,54.199,999.512,130.859,4.883
1641936958.225,104.980,73.242,999.512,122.070,38.086
1641936958.229,99.121,90.332,999.512,108.887,69.824
1641936958.233,125.000,83.496,999.512,114.746,57.129
1641936958.237,116.211,75.684,999.512,112.793,5.859
1641936958.240,85.449,82.031,-999.023,111.816,23.926
1641936958.244,52.246,85.449,985.352,73.730,51.270
1641936958.248,27.344,82.520,-973.633,32.227,24.414
1641936958.252,13.184,68.848,891.602,18.066,11.230
1641936958.256,-25.879,63.965,618.164,-7.812,14.160
1641936958.260,-66.406,74.219,721.191,-46.387,62.012
1641936958.278,-79.102,60.547,690.918,-85.938,56.152
1641936958.282,-70.801,60.059,369.629,-91.797,12.695
1641936958.286,-79.590,66.406,238.281,-91.797,50.293
1641936958.290,-108.398,58.105,152.344,-115.723,65.918
1641936958.294,-124.512,44.922,-75.684,-145.508,16.602
1641936958.298,-112.793,27.344,-424.805,-147.949,8.789
1641936958.301,-93.262,28.320,-574.219,-123.047,21.484
1641936958.305,-100.098,36.621,-414.551,-115.234,30.273
1641936958.309,-111.816,22.949,-436.523,-125.000,35.156
1641936958.313,-88.867,22.949,-676.270,-117.676,7.324
1641936958.317,-60.059,31.250,-662.598,-102.051,54.199
1641936958.321,-49.316,21.973,-486.328,-86.914,100.586
1641936958.323,-54.199,16.602,-516.602,-86.914,39.062
1641936958.327,-40.527,14.160,-603.516,-90.332,-2.441
1641936958.331,-7.812,5.859,-494.629,-71.777,-12.695
1641936958.335,-12.695,-3.906,-422.852,-53.223,-8.789
1641936958.339,-39.551,-4.883,-553.711,-46.387,17.578
1641936958.343,-30.762,4.883,-721.191,-52.246,11.719
1641936958.346,-0.488,15.137,-627.441,-35.156,0.977
1641936958.350,11.719,13.672,-335.449,-7.324,34.668
1641936958.354,-7.812,-5.371,-392.090,-16.113,48.340
1641936958.358,-16.602,-10.742,-666.992,-24.902,28.320
1641936958.362,17.090,-1.465,-392.578,-9.766,24.902
1641936958.366,37.109,-8.789,-275.391,15.137,-2.441
1641936958.369,27.344,-5.859,-313.965,19.043,2.441
1641936958.373,17.090,-7.812,-304.199,4.883,42.480
1641936958.377,33.203,-12.207,-246.582,7.812,34.180
1641936958.381,56.641,-15.137,-158.203,30.762,3.906
1641936958.385,52.734,-16.113,-244.141,43.945,38.574
1641936958.389,36.133,-16.113,-354.004,22.949,9.277
1641936958.392,48.340,-16.602,-301.758,24.414,-6.348
1641936958.396,74.707,-12.207,-155.762,62.500,-3.418
1641936958.400,68.359,-16.602,-383.301,74.219,-41.992
1641936958.404,45.898,-9.766,-336.914,57.617,-21.973
1641936958.408,49.805,-2.930,43.945,45.410,57.129
1641936958.412,67.871,-16.602,-7.812,58.105,53.711
1641936958.413,74.219,-23.438,-68.848,80.078,27.832
1641936958.417,66.895,-20.508,22.461,76.172,38.574
1641936958.421,58.594,-20.508,75.195,57.129,11.719
1641936958.425,65.918,-21.484,-30.762,50.781,15.625
1641936958.429,79.590,-20.996,-131.836,71.777,12.207
1641936958.433,59.570,-18.066,-82.520,80.078,-14.160
1641936958.436,33.691,-20.020,-68.359,51.758,14.160
1641936958.440,49.316,-22.461,-180.176,41.992,12.207
1641936958.444,63.965,-20.508,-452.148,48.340,-6.836
1641936958.448,67.383,-8.789,-195.801,74.707,53.223
1641936958.452,55.176,-16.602,134.277,79.102,67.383
1641936958.456,47.363,-27.344,13.184,42.969,11.230
1641936958.458,65.918,-23.438,37.109,60.059,0.000
1641936958.462,67.383,-17.578,144.531,78.125,-4.883
1641936958.466,39.551,-24.902,99.121,63.477,-18.555
1641936958.470,31.738,-29.297,1.465,53.223,-0.977
1641936958.474,53.223,-18.555,-3.906,56.641,-9.766
1641936958.478,59.570,-18.066,-41.016,84.473,-10.742
1641936958.481,35.645,-21.484,-99.609,78.613,21.484
1641936958.485,14.160,-29.785,-339.355,52.734,17.578
1641936958.489,41.016,-19.531,-422.852,53.223,-2.930
1641936958.493,70.312,-9.277,-1.953,78.613,-0.488
1641936958.497,49.805,-26.367,80.078,84.473,32.227
1641936958.501,30.762,-25.879,-38.574,59.082,51.270
1641936958.503,37.109,-20.996,61.035,52.734,55.664
1641936958.507,54.688,-30.273,111.328,73.730,6.348
1641936958.511,57.617,-35.645,20.020,90.332,-8.301
1641936958.515,43.945,-26.367,-8.789,74.219,-17.578
1641936958.519,42.480,-16.602,64.941,54.199,-20.508
1641936958.523,62.012,-16.602,-26.855,62.988,13.672
1641936958.526,58.594,-19.531,-224.121,77.148,11.230
1641936958.530,30.273,-7.324,-321.777,60.059,9.277
1641936958.534,37.598,8.789,-57.129,38.574,27.344
1641936958.538,62.012,0.000,33.691,44.922,12.207
1641936958.542,67.383,-2.930,-190.430,63.477,-25.391
1641936958.546,50.293,7.812,-143.066,60.547,-75.195
1641936958.547,32.715,7.324,55.664,41.016,-34.180
1641936958.551,44.922,-7.324,101.074,42.480,41.504
1641936958.555,59.082,-17.578,28.809,62.012,28.809
1641936958.559,51.270,-12.207,97.168,71.289,70.312
1641936958.563,28.320,-15.625,131.348,50.781,87.402
1641936958.567,27.832,-22.949,-65.918,36.133,26.855
1641936958.570,39.062,-16.602,-340.820,50.293,14.648
1641936958.574,39.551,-8.301,-227.539,61.035,8.789
1641936958.578,38.086,-9.277,116.211,63.477,1.953
1641936958.582,30.273,-12.207,5.859,47.852,-15.625
1641936958.586,31.250,-9.277,-37.598,38.574,36.133
1641936958.590,30.762,-5.371,138.184,48.828,98.633
1641936958.594,3.418,-9.277,107.422,31.738,98.145
1641936958.598,-16.602,-17.578,-160.156,6.348,49.316
1641936958.602,6.836,-12.695,-204.590,5.371,38.086
1641936958.606,39.062,-8.301,14.648,23.926,61.523
1641936958.610,25.879,-10.742,130.371,28.320,96.191
1641936958.614,1.465,-19.531,-131.836,15.625,80.078
1641936958.617,27.344,-12.695,-290.039,24.902,14.648
1641936958.621,57.129,0.488,51.270,53.711,41.504
1641936958.625,45.898,-10.254,238.281,70.801,86.914
1641936958.629,26.367,-20.508,-7.812,51.270,31.738
1641936958.633,38.086,-12.207,-129.883,40.039,-4.883
1641936958.637,66.895,-5.371,89.355,66.406,33.691
1641936958.652,61.523,-14.160,138.184,77.148,24.902
1641936958.656,39.062,-13.672,60.059,62.012,1.465
1641936958.660,39.062,-6.836,37.598,45.410,59.570
1641936958.664,49.316,-5.859,2.441,41.504,111.816
1641936958.668,57.617,-5.859,85.938,62.988,78.613
1641936958.672,35.156,-17.090,-166.504,61.035,27.344
1641936958.675,18.555,-5.371,-408.691,30.762,4.883
1641936958.679,42.480,12.207,-27.832,26.367,37.598
1641936958.683,61.523,0.977,87.402,48.340,66.406
1641936958.687,50.781,-5.859,-26.855,61.035,27.832
1641936958.691,47.363,-2.930,43.457,53.223,15.625
1641936958.695,54.199,-3.906,146.973,54.199,67.383
1641936958.697,36.133,-5.371,79.102,33.203,112.793
1641936958.701,33.203,0.488,-33.203,31.250,85.449
1641936958.705,23.438,6.348,22.949,29.785,58.594
1641936958.709,15.137,12.695,103.027,3.418,104.492
1641936958.713,32.715,20.508,18.066,14.160,84.473
1641936958.717,32.227,26.855,-83.984,23.926,24.902
1641936958.720,17.578,28.809,-3.418,16.602,29.297
1641936958.724,17.090,26.855,19.043,7.812,-6.836
1641936958.728,32.227,11.719,-109.863,11.230,-53.223
1641936958.732,33.203,7.812,-354.492,32.715,-26.855
1641936958.736,9.277,24.902,-116.211,24.902,9.766
1641936958.740,4.883,20.020,125.000,9.766,56.152
1641936958.743,27.832,16.113,-19.531,19.043,28.320
1641936958.747,39.551,12.207,28.809,41.504,-18.555
1641936958.751,33.691,12.207,159.180,47.852,-8.301
1641936958.755,13.184,11.719,74.707,16.113,-22.949
1641936958.759,18.555,1.953,45.898,9.766,6.348
1641936958.763,31.738,-5.859,-52.734,25.391,29.785
1641936958.766,22.949,-0.488,-13.672,35.645,77.637
1641936958.770,8.301,2.441,161.621,20.508,78.613
1641936958.774,2.441,-8.789,-153.809,-8.301,2.441
1641936958.778,27.344,-1.953,-173.828,9.766,-9.277
1641936958.782,39.551,4.883,236.328,42.969,17.090
1641936958.786,13.184,-10.254,103.027,36.621,-13.672
1641936958.787,-4.395,-9.277,-108.887,17.090,-33.203
1641936958.791,21.484,8.789,66.895,26.367,-5.859
1641936958.795,39.551,10.254,167.969,52.246,20.508
1641936958.799,13.672,6.348,44.434,47.852,7.324
1641936958.803,-0.488,10.254,36.621,26.855,-25.391
1641936958.807,15.625,9.766,1.465,20.508,7.324
1641936958.810,36.621,21.973,1.953,40.039,14.160
1641936958.814,22.461,19.531,-38.574,56.152,-23.438
1641936958.818,-1.953,15.625,-121.094,41.992,5.859
1641936958.822,20.020,31.250,153.320,31.250,66.406
1641936958.826,50.293,29.297,280.273,41.992,73.730
1641936958.830,48.828,17.090,123.535,48.828,30.762
1641936958.832,27.344,19.531,12.695,32.715,-4.395
1641936958.836,30.273,37.109,120.117,23.926,20.996
1641936958.840,53.711,36.621,165.039,37.598,53.223
1641936958.844,52.246,25.391,20.996,45.410,74.219
1641936958.848,23.438,27.832,1.465,28.809,40.527
1641936958.852,12.207,36.133,32.715,7.324,21.484
1641936958.855,24.414,41.992,-67.871,7.812,27.344
1641936958.859,31.738,37.598,-224.609,23.438,21.484
1641936958.863,18.555,44.922,-100.586,18.066,45.410
1641936958.867,4.395,47.363,249.023,-8.301,69.824
1641936958.871,15.137,34.668,140.137,-18.555,56.641
1641936958.875,30.273,31.250,53.223,0.000,43.945
1641936958.879,23.926,32.715,213.379,8.301,74.707
1641936958.883,1.465,30.762,237.305,-16.602,94.727
1641936958.887,-7.324,22.461,15.625,-30.273,76.660
1641936958.891,17.090,25.391,-19.043,-2.441,106.445
1641936958.895,25.391,28.809,179.199,10.254,93.262
1641936958.899,-5.371,20.996,75.195,-6.348,27.832
1641936958.902,-15.625,11.230,-190.430,-23.926,5.859
1641936958.906,-2.441,14.648,-374.023,-16.113,9.277
1641936958.910,4.395,32.227,-52.734,11.230,61.035
1641936958.914,-13.184,28.320,145.020,5.859,41.992
1641936958.918,-23.926,25.391,24.902,-13.184,17.578
1641936958.922,-3.906,32.227,27.832,-18.066,35.156
1641936958.923,11.719,34.668,62.500,-1.465,-14.160
1641936958.927,-2.930,29.785,55.664,13.184,-30.273
1641936958.931,-15.625,21.973,-41.504,0.977,-6.836
1641936958.935,2.441,16.602,-28.809,3.418,19.531
1641936958.939,31.250,17.578,9.277,22.949,17.090
1641936958.943,29.297,22.461,-91.309,35.156,21.484
1641936958.946,0.488,15.137,-471.191,23.438,-1.465
1641936958.950,9.277,22.949,-600.586,6.348,-20.996
1641936958.954,49.805,36.621,-109.375,26.855,66.406
1641936958.958,54.199,28.809,-52.734,37.109,80.078
1641936958.962,39.062,31.738,-169.922,22.461,47.852
1641936958.966,44.434,35.156,-39.551,19.531,63.965
1641936958.968,60.547,30.273,30.273,26.367,55.176
1641936958.972,63.477,26.367,-34.668,38.574,34.180
1641936958.976,39.551,20.020,-108.887,16.113,37.598
1641936958.980,25.391,22.461,-62.500,-8.301,55.176
1641936958.984,33.691,25.391,-3.418,2.930,36.133
1641936958.988,28.809,14.648,-194.336,20.020,14.160
1641936958.991,12.207,22.949,-382.812,21.484,17.578
1641936958.995,-2.930,40.039,-158.203,-3.906,22.949
1641936958.999,6.348,31.738,-87.891,-6.836,17.090
1641936959.003,27.832,28.320,-220.703,14.648,5.859
1641936959.007,22.949,34.668,-187.500,24.414,16.113
1641936959.011,3.418,39.062,-27.832,8.789,1.465
1641936959.029,7.324,30.273,-21.484,-5.859,-3.418
1641936959.033,24.902,24.902,-64.453,14.648,15.625
1641936959.037,28.809,34.180,-3.418,34.668,39.062
1641936959.041,17.090,38.574,85.449,30.273,100.586
1641936959.045,12.207,29.297,58.105,14.648,91.797
1641936959.049,30.762,24.414,-92.285,20.508,50.293
1641936959.052,41.016,31.250,-135.742,41.992,16.113
1641936959.056,27.344,33.203,59.082,46.387,51.758
1641936959.060,14.648,26.367,47.363,28.809,83.496
1641936959.064,32.715,24.414,-241.211,32.227,2.441
1641936959.068,52.246,26.367,-211.914,55.664,11.719
1641936959.072,37.109,27.344,23.926,58.594,25.391
1641936959.073,7.324,20.508,-51.758,38.574,-25.879
1641936959.077,16.602,14.648,-172.363,30.273,15.625
1641936959.081,44.434,25.391,27.344,47.363,80.566
1641936959.085,36.133,24.902,152.344,53.711,70.801
1641936959.089,14.648,14.648,21.973,37.109,37.598
1641936959.093,19.043,13.672,-134.766,22.949,20.508
1641936959.096,45.898,20.020,-147.949,37.598,4.395
1641936959.100,49.805,34.180,15.625,59.082,32.227
1641936959.104,21.973,25.391,-41.992,45.410,69.336
1641936959.108,17.090,19.531,-273.438,28.320,10.742
1641936959.112,49.316,38.086,-22.461,38.086,23.438
1641936959.116,58.594,28.809,155.273,55.664,63.477
1641936959.119,31.250,25.391,99.609,51.758,42.969
1641936959.123,-1.953,29.297,26.367,31.250,46.387
1641936959.127,-2.930,31.738,146.484,31.738,87.891
1641936959.131,14.160,27.832,226.074,43.945,84.473
1641936959.135,5.859,19.531,37.598,49.805,45.410
1641936959.139,-9.766,21.973,-55.664,35.156,45.410
1641936959.142,9.766,21.484,-47.852,22.461,34.180
1641936959.146,32.715,20.996,66.895,48.340,42.969
1641936959.150,24.414,23.438,-104.004,62.012,11.719
1641936959.154,12.695,32.715,-83.008,45.898,29.297
1641936959.158,20.020,30.762,240.234,34.668,59.082
1641936959.162,39.551,21.973,204.102,45.898,64.941
1641936959.163,49.805,20.996,176.758,69.336,102.539
1641936959.167,34.180,23.926,225.586,58.594,125.488
1641936959.171,14.160,26.855,224.121,27.832,106.934
1641936959.175,19.531,24.414,150.391,23.926,57.129
1641936959.179,26.855,26.855,42.969,45.410,60.547
1641936959.183,0.488,31.738,-22.949,44.434,62.988
1641936959.186,-11.719,36.133,88.867,21.484,49.805
1641936959.190,7.324,27.344,12.695,21.484,29.297
1641936959.194,28.320,25.879,-311.035,35.645,4.883
1641936959.198,32.227,40.039,-59.082,34.180,3.906
1641936959.202,13.184,29.297,187.500,21.484,23.926
1641936959.206,16.113,19.043,78.613,14.648,50.293
1641936959.208,42.480,19.043,108.398,34.180,29.785
1641936959.212,51.758,21.484,257.324,48.828,34.180
1641936959.216,31.738,23.926,237.793,40.039,52.734
1641936959.220,28.320,19.531,156.250,31.250,54.199
1641936959.224,57.129,19.043,182.129,36.621,49.316
1641936959.228,66.895,20.020,116.211,61.523,79.102
1641936959.231,47.363,13.672,125.488,47.852,115.723
1641936959.235,28.320,4.883,-155.762,15.137,27.344
1641936959.239,52.734,16.113,-261.230,25.879,-11.719
1641936959.243,79.102,25.879,181.152,47.852,22.461
1641936959.247,51.270,11.230,161.133,48.828,8.301
1641936959.251,28.320,11.719,30.762,23.926,5.371
1641936959.253,37.109,25.879,137.695,10.254,17.090
1641936959.257,49.316,23.926,208.496,33.203,-6.348
1641936959.261,30.762,9.766,106.445,41.992,-18.555
1641936959.265,-6.836,6.348,60.059,18.066,15.625
1641936959.269,-2.441,10.742,153.809,-3.418,45.410
1641936959.273,15.137,12.207,59.570,15.137,4.883
1641936959.276,13.672,9.766,-117.188,32.227,-14.160
1641936959.280,5.371,19.043,-167.969,19.531,-6.348
1641936959.284,15.625,41.016,155.273,10.254,28.320
1641936959.288,32.715,34.180,252.930,7.812,42.969
1641936959.292,41.016,21.973,-20.020,17.578,-13.184
1641936959.296,33.203,25.391,68.359,20.508,9.766
1641936959.298,25.879,28.320,299.805,12.695,55.664
1641936959.302,50.293,25.879,309.082,23.438,37.598
1641936959.306,68.848,29.297,204.102,41.504,3.418
1641936959.310,55.664,33.691,224.121,55.664,-8.789
1641936959.314,26.855,18.555,319.824,41.992,9.277
1641936959.318,20.996,-1.465,145.020,25.879,-23.438
1641936959.321,36.133,-2.930,-194.824,38.574,-90.332
1641936959.325,34.668,12.207,-131.348,51.270,-31.738
1641936959.329,27.832,16.113,193.848,54.688,1.465
1641936959.333,33.203,14.648,150.391,45.410,-55.176
1641936959.337,52.734,25.879,77.148,43.945,-30.762
1641936959.341,56.641,31.738,243.164,56.152,-5.859
1641936959.344,31.250,24.902,218.262,37.109,-29.297
1641936959.348,12.207,25.391,27.344,18.066,7.324
1641936959.352,30.762,27.832,18.066,27.344,40.527
1641936959.356,58.594,28.809,206.543,51.270,41.504
1641936959.360,46.387,25.391,296.875,57.617,49.316
1641936959.364,22.461,14.160,37.598,38.574,20.996
1641936959.367,34.180,18.555,-47.852,34.668,38.086
1641936959.371,56.641,28.809,221.680,52.246,70.312
1641936959.375,41.504,32.227,317.871,56.152,82.031
1641936959.379,16.602,28.320,123.535,34.180,35.645
1641936959.383,30.273,26.855,23.438,21.484,14.648
1641936959.387,56.152,38.086,227.539,45.410,28.809
1641936959.403,49.316,40.039,260.254,63.965,19.531
1641936959.407,21.484,36.621,189.941,48.828,30.762
1641936959.411,16.602,35.156,191.406,26.367,39.062
1641936959.415,31.738,31.250,127.441,31.250,20.508
1641936959.419,43.945,33.203,198.730,56.152,25.391
1641936959.423,24.902,25.879,-22.949,43.945,17.090
1641936959.426,10.254,32.227,-263.184,18.555,-16.113
1641936959.430,38.086,49.316,147.461,28.809,56.641
1641936959.434,49.805,35.156,219.727,41.504,84.961
1641936959.438,25.391,19.043,39.551,40.039,45.410
1641936959.442,5.859,23.926,86.914,19.531,28.809
1641936959.446,9.766,30.273,199.707,16.113,42.480
1641936959.448,21.484,30.273,215.820,37.598,57.129
1641936959.452,24.902,28.320,143.066,41.016,56.641
1641936959.456,7.812,28.809,165.039,31.738,52.734
1641936959.460,5.859,28.320,212.402,23.438,69.336
1641936959.464,27.344,23.438,129.395,41.504,49.316
1641936959.468,26.367,22.461,29.297,55.664,10.254
1641936959.471,4.883,22.461,44.434,36.621,16.602
1641936959.475,8.789,28.320,70.312,23.926,28.320
1641936959.479,30.273,31.250,49.805,34.668,62.500
1641936959.483,35.645,25.391,-115.234,55.664,51.270
1641936959.487,26.367,28.809,92.285,47.363,70.312
1641936959.491,15.137,23.926,309.082,23.926,50.293
1641936959.493,29.297,22.949,248.535,30.762,27.344
1641936959.497,48.340,20.508,251.953,46.387,42.480
1641936959.501,34.668,17.090,340.332,43.457,56.152
1641936959.505,9.766,14.160,339.844,18.066,77.637
1641936959.509,20.020,7.812,208.984,14.648,43.945
1641936959.513,44.922,6.348,157.227,44.922,41.992
1641936959.516,33.691,6.836,151.855,50.293,91.797
1641936959.520,11.719,12.695,208.496,36.133,54.199
1641936959.524,-2.930,3.906,-53.223,9.766,-20.508
1641936959.528,13.672,19.531,-159.668,19.043,3.906
1641936959.532,29.785,39.551,267.090,52.246,69.336
1641936959.536,7.812,24.902,284.668,42.480,59.570
1641936959.538,-2.441,14.648,69.824,20.508,11.719
1641936959.542,17.578,11.719,216.797,15.625,26.367
1641936959.546,32.715,9.766,333.984,40.527,55.664
1641936959.550,15.137,16.602,187.012,51.758,41.504
1641936959.554,6.348,24.902,140.625,31.250,0.977
1641936959.558,27.344,19.531,70.801,36.621,-17.578
1641936959.561,47.363,12.695,120.117,54.688,15.625
1641936959.565,27.344,-2.930,75.684,55.176,16.113
1641936959.569,-5.371,-13.672,-145.508,36.621,-2.930
1641936959.573,6.348,-2.441,97.656,25.391,50.781
1641936959.577,36.133,3.906,292.969,44.922,50.293
1641936959.581,37.109,4.395,206.543,58.105,8.301
1641936959.583,18.555,7.324,78.613,42.969,6.348
1641936959.587,18.066,8.789,178.223,27.344,37.109
1641936959.591,40.527,7.812,279.785,40.039,42.480
1641936959.595,40.039,10.742,172.363,50.293,22.949
1641936959.599,8.301,9.766,112.793,24.414,2.441
1641936959.603,-0.488,5.371,122.070,8.789,32.227
1641936959.606,25.391,-2.930,117.188,22.461,38.574
1641936959.610,42.480,-17.090,-101.562,40.039,15.625
1641936959.614,29.297,-18.066,-94.238,34.668,27.832
1641936959.618,18.555,-17.578,302.246,14.160,84.961
1641936959.622,21.484,-31.250,273.438,7.324,72.266
1641936959.626,32.227,-32.227,220.215,22.949,48.828
1641936959.628,24.414,-22.949,363.770,27.832,75.195
1641936959.632,8.301,-30.762,426.758,9.766,92.773
1641936959.636,10.254,-37.109,231.934,1.953,38.574
1641936959.640,31.738,-34.668,127.441,19.043,-17.578
1641936959.644,34.180,-34.668,322.266,31.738,13.672
1641936959.648,10.742,-27.344,292.969,21.484,1.953
1641936959.651,16.602,-23.926,108.398,17.090,-28.320
1641936959.655,41.504,-25.391,-120.117,22.949,-75.684
1641936959.659,44.922,-16.113,146.484,40.039,-60.059
1641936959.663,19.043,-11.719,390.137,34.180,-20.996
1641936959.667,15.137,-4.395,210.449,7.812,-30.762
1641936959.671,33.203,5.371,222.168,11.230,-7.812
1641936959.673,50.293,7.324,369.629,34.180,17.578
1641936959.677,33.691,-7.324,356.934,29.785,-8.789
1641936959.681,15.625,-7.324,247.559,5.371,-3.906
1641936959.685,40.039,-3.906,242.188,10.742,12.207
1641936959.689,61.035,-12.207,308.105,29.785,-13.184
1641936959.693,51.758,-20.020,206.055,41.016,-43.457
1641936959.696,22.949,-25.879,-156.250,32.227,-31.738
1641936959.700,30.762,-16.113,-113.281,22.461,16.113
1641936959.704,55.664,-7.812,273.438,39.062,-2.930
1641936959.708,38.574,-12.695,300.293,44.922,9.277
1641936959.712,13.672,-14.160,160.645,23.438,4.395
1641936959.716,15.137,-4.395,208.496,19.043,-10.254
1641936959.733,36.621,-3.906,342.773,34.668,16.602
1641936959.737,36.621,-19.531,172.852,42.480,-4.395
1641936959.741,9.277,-12.207,80.566,28.320,-20.020
1641936959.745,0.488,2.441,170.410,15.625,-9.277
1641936959.749,25.391,1.953,223.145,26.855,0.977
1641936959.753,43.457,0.488,65.918,47.363,-30.762
1641936959.756,20.508,0.488,-163.574,40.039,-47.852
1641936959.760,-0.977,3.418,100.586,5.859,8.789
1641936959.764,9.766,-5.859,205.566,-2.441,0.977
1641936959.768,27.344,-16.113,41.992,23.438,-11.230
1641936959.772,24.902,-14.160,115.234,35.156,8.301
1641936959.776,7.812,-0.488,312.500,27.832,51.758
1641936959.778,4.395,5.859,339.844,9.766,77.637
1641936959.782,27.832,7.324,277.832,18.066,39.551
1641936959.786,29.297,-0.977,257.812,44.922,7.812
1641936959.790,2.441,-9.766,330.566,38.086,32.227
1641936959.794,-1.465,-5.859,314.453,20.996,43.457
1641936959.798,28.320,-7.812,200.684,24.414,22.949
1641936959.801,40.527,-12.207,146.484,41.992,-0.488
1641936959.805,14.160,-6.836,237.305,43.457,-34.180
1641936959.809,-9.766,-1.465,291.504,23.438,5.371
1641936959.813,-2.441,-7.324,-8.301,16.113,29.297
1641936959.817,23.926,-0.488,6.836,27.832,-1.465
1641936959.821,21.973,7.812,245.605,37.598,5.371
1641936959.823,0.977,3.906,119.629,21.484,-5.859
1641936959.827,17.578,2.930,44.922,16.602,11.719
1641936959.831,52.734,9.277,207.031,41.992,19.043
1641936959.835,43.945,6.348,300.781,47.363,5.371
1641936959.839,6.836,5.371,208.008,29.785,4.883
1641936959.843,-7.324,0.977,89.844,16.113,16.113
1641936959.846,22.461,-6.348,19.531,40.039,19.531
1641936959.850,46.875,10.742,97.168,71.289,-4.395
1641936959.854,-4.883,16.113,-13.672,21.484,-4.883
1641936959.858,-39.551,16.602,-258.789,-31.250,-24.902
1641936959.862,-8.789,31.250,47.852,-23.438,-20.508
1641936959.866,-5.371,27.344,234.863,-20.508,-26.855
1641936959.869,-34.180,22.949,155.273,-49.316,-15.625
1641936959.873,-59.570,29.297,80.078,-93.262,36.621
1641936959.877,-55.176,43.457,81.055,-106.934,64.453
1641936959.881,-41.016,48.340,157.227,-97.656,74.219
1641936959.885,-55.176,49.316,93.262,-93.262,35.156
1641936959.889,-80.566,55.664,50.781,-108.887,1.465
1641936959.892,-70.801,56.641,62.012,-118.652,-18.066
1641936959.896,-44.922,55.664,188.477,-90.332,-16.602
1641936959.900,-51.758,42.480,82.520,-68.848,9.277
1641936959.904,-82.520,47.363,5.859,-87.891,-2.930
1641936959.908,-85.938,59.570,296.875,-97.656,-20.996
1641936959.912,-61.523,44.434,200.195,-79.590,-51.270
1641936959.913,-42.969,39.062,126.953,-55.176,-27.832
1641936959.917,-49.805,38.574,269.531,-47.852,11.230
1641936959.921,-53.223,31.738,297.363,-52.246,68.848
1641936959.925,-26.367,23.926,201.172,-41.504,83.496
1641936959.929,0.977,22.461,154.785,-21.484,62.500
1641936959.933,-16.602,20.020,145.020,-15.137,24.414
1641936959.936,-31.738,17.090,83.496,-24.414,-6.348
1641936959.940,-9.766,7.324,-21.484,-25.391,25.391
1641936959.944,7.812,-0.977,-226.562,-16.602,6.836
1641936959.948,20.020,8.789,49.316,-8.789,8.301
1641936959.952,11.719,2.930,345.215,-14.160,74.707
1641936959.956,15.625,-1.953,204.102,-23.438,61.035
1641936959.958,35.156,0.977,216.309,-4.883,46.387
1641936959.962,40.039,-0.488,292.480,9.766,31.738
1641936959.966,23.438,-0.488,259.766,-0.488,20.508
1641936959.970,13.672,-0.977,117.188,-11.719,9.766
1641936959.974,33.203,-3.418,115.234,2.441,-28.320
1641936959.978,34.668,-6.348,111.328,28.320,-27.832
1641936959.981,10.254,-13.184,29.785,20.020,11.719
1641936959.985,-4.395,-22.461,-234.375,-2.441,-10.254
1641936959.989,21.484,-2.441,-292.480,7.812,-19.531
1641936959.993,52.734,18.555,137.695,29.785,30.273
1641936959.997,28.809,8.789,213.867,27.832,26.855
1641936960.001,1.953,5.371,113.770,-5.371,25.391
1641936960.003,18.555,9.277,119.629,-12.207,36.133
1641936960.007,41.504,8.301,165.527,23.438,18.066
1641936960.011,26.855,2.441,138.672,39.551,42.969
1641936960.015,0.977,1.953,96.680,25.391,62.012
1641936960.019,1.465,3.906,167.480,5.859,28.320
1641936960.023,23.926,8.301,125.977,21.484,46.875
1641936960.026,28.320,9.766,-73.242,52.246,19.043
1641936960.030,7.812,15.625,-213.867,37.598,-49.805
1641936960.034,8.789,34.668,46.387,24.414,6.836
1641936960.038,29.785,29.297,274.902,41.016,67.383
1641936960.042,35.156,14.648,119.141,57.617,49.805
1641936960.046,20.996,14.648,27.344,56.641,26.367
1641936960.048,26.855,17.090,217.773,55.176,48.340
1641936960.052,37.109,18.066,266.602,52.734,64.453
1641936960.056,26.367,19.531,138.184,41.504,44.434
1641936960.060,15.625,15.137,160.156,46.387,21.484
1641936960.064,7.812,12.207,236.816,42.969,22.461
1641936960.068,18.066,10.254,148.438,36.621,11.719
1641936960.071,32.715,9.277,-156.738,56.641,-20.020
1641936960.075,33.203,20.020,-126.465,68.848,-45.410
1641936960.079,17.090,26.855,223.145,62.012,-4.395
1641936960.083,13.184,21.484,214.844,53.223,8.301
1641936960.087,40.039,23.438,129.395,63.477,7.812
1641936960.091,30.273,26.855,185.547,70.801,35.156
1641936960.096,-11.719,16.113,188.477,52.246,22.461
1641936960.100,-36.133,6.348,-50.293,33.203,17.090
1641936960.104,-25.391,15.625,-155.273,31.738,0.488
1641936960.108,-6.348,26.367,45.410,50.293,12.695
1641936960.112,-12.207,22.461,190.918,51.758,53.711
1641936960.116,-37.109,11.719,-62.988,20.996,26.367
1641936960.119,-24.902,17.578,-215.820,20.996,2.441
1641936960.123,13.184,24.902,118.652,50.293,52.734
1641936960.127,16.602,21.484,229.980,60.059,64.453
1641936960.131,0.000,14.648,33.203,41.016,56.641
1641936960.135,4.883,17.090,-20.020,26.367,64.941
1641936960.139,34.180,18.066,197.266,46.875,79.102
1641936960.152,36.133,-1.953,184.570,62.500,87.402
1641936960.156,12.207,-0.488,83.496,43.945,68.359
1641936960.160,12.695,15.137,129.395,20.996,36.133
1641936960.164,33.691,14.160,64.453,30.762,-14.160
1641936960.168,35.156,15.137,36.133,50.293,16.602
1641936960.172,10.254,11.230,-163.086,36.133,46.875
1641936960.175,-0.977,26.367,-232.422,12.207,68.848
1641936960.179,25.879,40.039,153.809,18.555,70.801
1641936960.183,42.480,20.996,166.016,38.574,27.344
1641936960.187,28.809,17.090,19.531,41.016,39.062
1641936960.191,17.578,30.273,127.441,21.973,59.570
1641936960.195,20.996,27.832,244.141,18.555,57.617
1641936960.197,38.574,22.461,140.137,39.062,41.504
1641936960.201,38.086,36.621,78.125,45.898,45.898
1641936960.205,21.973,41.016,148.926,26.855,46.387
1641936960.209,30.273,32.227,178.223,14.160,39.062
1641936960.213,53.223,30.762,104.980,25.879,30.273
1641936960.217,57.129,32.715,-10.254,37.598,15.625
1641936960.220,29.785,26.855,-29.297,27.344,46.875
1641936960.224,21.484,24.414,-47.852,18.555,69.824
1641936960.228,40.527,15.137,-175.293,28.809,19.531
1641936960.232,43.945,9.277,-332.031,48.340,6.348
1641936960.236,30.762,24.902,-82.520,42.480,26.367
1641936960.240,20.996,27.344,153.320,16.602,22.949
1641936960.243,41.504,23.926,83.496,20.996,24.414
1641936960.247,50.293,20.508,63.965,36.621,19.043
1641936960.251,39.551,17.578,175.293,39.551,46.875
1641936960.255,31.738,16.113,145.508,17.578,66.895
1641936960.259,42.480,9.766,13.184,8.789,43.457
1641936960.263,62.500,10.742,-123.535,29.297,-20.996
1641936960.266,55.664,22.461,-97.168,29.297,13.184
1641936960.270,42.969,23.438,83.984,13.184,72.266
1641936960.274,42.480,10.742,-222.656,-2.441,14.648
1641936960.278,67.383,25.391,-331.543,11.230,-4.883
1641936960.282,80.078,38.574,47.852,35.645,5.371
1641936960.286,55.664,20.020,8.789,9.277,-14.648
1641936960.287,40.527,15.137,-183.594,-22.461,-20.020
1641936960.291,64.941,25.391,18.555,-17.090,20.996
1641936960.295,68.359,17.090,191.895,-8.301,37.109
1641936960.299,34.668,17.578,61.523,-14.160,31.250
1641936960.303,19.043,32.715,57.617,-41.992,36.133
1641936960.307,30.273,37.109,31.250,-55.176,-2.930
1641936960.310,36.133,48.340,33.203,-43.457,-10.254
1641936960.314,8.789,44.434,-18.066,-41.992,-21.973
1641936960.318,-10.254,45.410,-316.406,-53.223,-25.879
1641936960.322,14.648,66.406,-119.141,-46.875,31.250
1641936960.326,28.809,66.406,109.863,-11.230,15.137
1641936960.330,-4.395,62.500,14.648,-12.207,-8.789
1641936960.333,-23.438,71.289,-167.480,-24.414,5.859
1641936960.337,-8.789,87.891,-128.906,-9.766,20.996
1641936960.341,11.230,89.844,-77.637,12.207,31.738
1641936960.345,14.648,90.332,-222.168,29.297,28.320
1641936960.349,0.000,84.961,-189.941,12.695,36.621
1641936960.353,-18.555,73.242,-243.164,-14.648,5.859
1641936960.356,-0.488,68.848,-308.105,4.883,15.625
1641936960.360,17.578,56.152,-445.312,32.715,47.852
1641936960.364,1.953,61.035,-361.328,25.879,44.434
1641936960.368,11.230,60.547,-41.504,12.695,42.969
1641936960.372,24.414,37.109,-94.727,18.555,61.035
1641936960.376,36.133,21.484,-193.359,47.852,44.434
1641936960.378,25.879,11.230,-113.281,56.152,33.691
1641936960.382,6.836,2.441,29.297,40.039,68.848
1641936960.386,22.461,-12.695,-150.391,43.945,-2.930
1641936960.390,44.922,-14.648,-258.789,70.801,-44.434
1641936960.394,48.828,-5.859,-65.918,102.539,-7.324
1641936960.398,19.043,-11.719,-86.914,91.309,1.465
1641936960.401,17.090,-26.855,-296.387,72.266,-25.879
1641936960.405,55.664,-31.250,-566.895,90.332,-40.039
1641936960.409,78.613,-17.090,-316.895,113.770,-1.953
1641936960.413,56.152,-22.461,17.090,104.980,30.273
1641936960.417,36.133,-29.297,-40.039,85.449,18.066
1641936960.421,51.758,-24.414,2.441,93.750,-2.441
1641936960.423,74.219,-19.531,119.141,109.375,36.133
1641936960.427,72.266,-20.020,109.375,112.793,49.316
1641936960.431,62.012,-18.066,-12.207,93.750,53.223
1641936960.435,75.195,-12.207,-33.691,87.891,77.148
1641936960.439,90.820,-18.066,3.418,111.328,39.551
1641936960.443,78.125,-12.695,-13.672,114.258,38.574
1641936960.446,49.316,-9.277,-309.082,97.656,33.203
1641936960.450,55.664,-3.418,-442.383,88.379,44.434
1641936960.454,87.891,17.578,3.418,97.168,86.426
1641936960.458,93.262,11.230,128.906,108.887,65.430
1641936960.462,62.988,3.418,-42.969,89.355,31.250
1641936960.466,57.617,8.789,-51.758,72.754,34.180
1641936960.483,83.008,2.441,42.480,83.008,45.898
1641936960.487,84.473,0.000,0.977,102.051,5.371
1641936960.491,68.848,6.348,-36.621,98.145,7.812
1641936960.495,65.430,11.230,17.090,77.148,13.672
1641936960.499,77.637,12.207,62.012,79.590,-12.207
1641936960.503,78.125,0.000,-159.668,94.238,-41.992
1641936960.506,58.105,12.207,-385.742,92.285,-53.711
1641936960.510,46.875,29.297,-47.852,58.594,12.207
1641936960.514,46.875,9.766,41.016,42.969,35.645
1641936960.518,53.711,4.395,-162.598,68.359,4.883
1641936960.522,42.480,15.137,-79.102,74.707,10.254
1641936960.526,27.832,12.695,99.609,53.711,38.086
1641936960.528,29.297,5.371,101.562,42.480,28.320
1641936960.532,47.852,10.254,74.707,56.152,14.160
1641936960.536,64.941,18.555,120.605,83.008,-2.930
1641936960.540,45.898,18.066,135.254,73.242,-28.320
1641936960.544,39.062,8.301,50.293,52.246,-24.902
1641936960.548,71.777,0.000,-77.637,53.223,-31.738
1641936960.551,86.426,4.395,-65.918,73.242,-25.391
1641936960.555,66.895,6.836,102.539,82.031,22.461
1641936960.559,53.223,5.859,141.602,59.082,35.156
1641936960.563,57.129,4.883,-218.750,55.176,-25.391
1641936960.567,72.754,15.625,-238.770,67.383,-22.461
1641936960.571,69.824,19.043,14.160,74.707,5.859
1641936960.574,43.457,12.695,-117.188,60.059,-2.930
1641936960.578,46.387,21.484,-169.434,43.945,39.551
1641936960.582,70.801,33.691,30.762,66.406,61.523
1641936960.586,62.012,27.344,132.324,73.730,55.176
1641936960.590,23.926,15.137,-54.199,47.852,41.992
1641936960.594,21.484,11.719,-235.840,39.551,31.250
1641936960.597,54.199,15.137,-207.031,51.758,37.109
1641936960.601,63.477,24.902,-1.953,63.965,61.523
1641936960.605,37.598,20.020,-126.953,43.945,26.855
1641936960.609,21.973,22.461,-397.461,25.391,-0.488
1641936960.613,48.340,34.668,-118.652,49.805,20.020
1641936960.617,60.547,26.367,31.738,77.148,8.301
1641936960.634,34.668,32.227,-73.730,72.754,29.297
1641936960.638,7.324,31.738,-112.305,35.645,0.488
1641936960.642,4.395,30.762,-92.773,23.926,-6.348
1641936960.646,18.066,40.527,-16.602,46.875,25.391
1641936960.650,29.297,41.016,39.062,60.059,33.691
1641936960.654,13.672,39.551,71.777,41.504,37.598
1641936960.657,14.648,46.875,146.973,20.996,21.484
1641936960.661,51.758,55.176,411.133,48.340,33.691
1641936960.665,38.574,31.250,275.391,70.312,38.086
1641936960.669,26.367,30.273,92.773,70.801,34.180
1641936960.673,56.152,60.059,548.828,80.566,70.801
1641936960.677,56.641,65.430,786.133,73.242,93.262
1641936960.663,46.875,62.012,811.523,75.684,99.121
1641936960.667,46.387,69.336,876.953,82.520,56.641
1641936960.671,38.086,81.543,875.977,60.059,83.984
1641936960.675,35.156,92.773,817.871,48.828,106.934
1641936960.679,32.715,91.797,661.133,52.734,-6.836
1641936960.683,-1.465,91.309,481.445,33.691,-22.949
1641936960.686,-37.109,93.750,381.836,-8.789,32.715
1641936960.690,-37.109,88.867,242.676,-33.203,57.129
1641936960.694,-41.992,89.355,237.305,-41.016,73.242
1641936960.698,-61.035,82.031,325.684,-56.152,41.992
1641936960.702,-84.961,62.988,170.898,-84.473,26.855
1641936960.706,-81.055,46.387,-222.656,-97.168,7.324
1641936960.723,-46.875,46.875,-590.820,-77.148,9.277
1641936960.727,-35.156,57.617,-345.703,-70.312,74.707
1641936960.731,-54.688,36.621,-233.887,-91.797,60.059
1641936960.735,-50.781,21.973,-466.309,-102.051,20.996
1641936960.739,-6.836,23.926,-451.172,-79.590,30.762
1641936960.743,7.812,20.020,-502.930,-54.199,47.363
1641936960.746,-1.953,19.043,-491.699,-49.805,64.453
1641936960.750,-13.672,3.418,-722.656,-66.895,33.203
1641936960.754,-1.953,5.859,-862.305,-62.012,11.719
1641936960.758,30.273,12.695,-463.379,-28.320,32.227
1641936960.762,19.531,-4.883,-446.289,-12.207,26.855
1641936960.766,0.000,-10.742,-529.785,-20.020,-19.043
1641936960.753,12.207,-7.812,-437.012,-19.531,-35.156
1641936960.757,35.156,-5.371,-328.613,16.602,-45.898
1641936960.761,25.879,-11.230,-387.207,32.227,-22.949
1641936960.765,4.883,-2.441,-456.055,15.625,6.348
1641936960.769,13.672,10.742,-323.242,4.395,12.695
1641936960.773,38.574,-3.418,-393.066,12.207,43.457
1641936960.776,34.668,-7.812,-530.762,29.785,65.918
1641936960.780,5.371,2.441,-445.801,19.043,52.734
1641936960.784,8.789,9.766,-319.336,5.371,9.277
1641936960.788,39.551,20.508,-190.918,15.137,33.691
1641936960.792,44.434,10.254,-351.562,25.391,55.664
1641936960.796,17.578,9.277,-733.398,26.855,21.484
1641936960.798,8.301,26.367,-396.973,17.578,41.016
1641936960.802,21.973,13.184,-71.777,19.043,85.938
1641936960.806,30.762,6.836,-138.184,29.785,62.988
1641936960.810,18.555,11.230,-41.992,32.227,53.223
1641936960.814,-8.789,6.836,4.395,12.695,89.844
1641936960.818,-2.441,1.465,-147.949,-5.371,99.609
1641936960.821,23.438,0.977,-459.473,12.207,34.668
1641936960.825,27.832,17.090,-383.789,23.926,14.648
1641936960.829,9.766,27.832,-8.301,17.090,81.543
1641936960.833,3.906,20.020,-31.250,21.484,104.004
1641936960.837,31.250,16.113,-80.078,41.992,94.727
1641936960.841,40.527,19.043,7.324,65.430,72.754
1641936960.844,24.902,15.137,79.590,53.223,66.895
1641936960.848,19.043,6.348,-102.051,38.086,41.016
1641936960.852,48.340,10.742,-235.840,62.988,44.434
1641936960.856,78.613,17.090,-65.430,84.961,103.516
1641936960.860,63.965,10.254,-38.086,79.102,85.449
1641936960.864,52.246,5.859,-267.578,62.500,69.824
1641936960.867,75.195,15.137,-498.047,58.105,47.852
1641936960.871,99.609,20.508,-270.508,83.496,62.012
1641936960.875,105.469,4.395,-68.848,115.234,105.957
1641936960.879,97.168,13.184,-197.754,109.375,94.727
1641936960.883,65.918,28.809,-266.602,50.293,108.398
1641936960.887,55.664,26.367,-194.336,28.809,138.672
1641936960.903,50.293,31.250,-107.422,37.598,110.352
1641936960.907,15.137,32.715,-150.879,-7.812,41.016
1641936960.911,5.371,39.062,-157.227,-49.805,19.531
1641936960.915,10.742,42.969,-45.410,-57.129,47.852
1641936960.919,-3.418,34.668,36.133,-50.781,80.566
1641936960.923,-36.621,22.949,-206.055,-56.641,80.078
1641936960.926,-45.898,35.645,-292.480,-76.172,43.945
1641936960.930,-14.648,45.898,99.121,-62.988,48.340
1641936960.934,-0.488,24.902,144.531,-39.062,16.113
1641936960.938,-9.277,17.090,-22.461,-30.762,-8.789
1641936960.942,-9.277,21.484,47.852,-32.227,52.246
1641936960.946,20.996,19.531,173.828,-22.949,58.105
1641936960.949,50.293,20.996,35.156,1.953,36.133
1641936960.953,38.086,25.879,-95.703,6.348,50.293
