timestamps,TP9,AF7,AF8,TP10,Right AUX
1641937029.605,18.066,57.129,242.188,13.184,6.348
1641937029.609,19.531,50.293,247.559,20.508,29.785
1641937029.613,-4.883,48.828,147.949,4.883,18.555
1641937029.617,-3.906,50.293,134.766,-7.324,33.691
1641937029.621,22.461,46.387,228.516,4.395,37.598
1641937029.625,29.785,37.109,150.879,27.832,53.223
1641937029.629,7.812,37.109,-168.945,20.020,30.762
1641937029.632,1.953,47.363,-286.133,5.371,25.879
1641937029.636,31.738,52.246,136.230,23.438,100.098
1641937029.640,45.410,38.574,233.887,40.527,68.848
1641937029.644,28.809,32.715,142.090,42.969,44.922
1641937029.648,19.043,27.832,170.410,31.250,66.895
1641937029.650,34.668,22.461,213.867,28.809,32.227
1641937029.654,56.152,20.020,172.852,47.363,46.387
1641937029.658,46.387,18.555,108.398,51.758,48.828
1641937029.662,30.273,25.391,144.531,32.715,3.906
1641937029.666,41.016,28.320,149.414,21.973,1.465
1641937029.670,55.664,22.461,-56.152,38.086,16.113
1641937029.674,54.688,26.367,-241.211,53.223,24.902
1641937029.677,41.504,35.156,-30.762,36.621,33.691
1641937029.681,36.133,34.180,77.148,15.625,39.062
1641937029.685,46.875,38.086,-25.391,25.391,-0.488
1641937029.689,41.992,41.016,-30.762,39.551,-2.930
1641937029.693,15.137,39.062,81.055,26.367,22.949
1641937029.710,0.488,37.598,124.023,10.742,27.832
1641937029.714,13.672,39.551,-31.250,5.859,46.875
1641937029.718,28.320,41.016,-91.797,13.184,51.270
1641937029.722,16.602,36.133,41.992,20.996,24.414
1641937029.726,3.906,27.832,59.570,5.859,19.531
1641937029.730,19.531,23.926,-86.426,5.371,34.180
1641937029.734,42.480,36.621,-72.266,24.902,26.367
1641937029.737,34.668,43.457,112.793,34.668,5.371
1641937029.741,14.160,40.039,171.875,27.832,25.391
1641937029.745,15.625,39.551,-73.242,17.578,66.406
1641937029.749,46.387,48.340,6.836,41.504,110.352
1641937029.753,52.246,40.039,321.777,51.758,119.141
1641937029.755,12.695,22.949,37.598,22.461,25.391
1641937029.759,4.883,29.785,-157.715,11.719,3.418
1641937029.763,38.574,44.434,80.078,27.344,109.863
1641937029.767,41.992,36.133,176.270,47.363,95.703
1641937029.771,13.672,34.668,13.184,38.086,34.668
1641937029.775,0.977,36.621,-91.797,17.578,79.590
1641937029.779,15.137,35.156,-56.641,19.043,69.336
1641937029.782,29.785,45.898,148.926,39.551,51.270
1641937029.786,5.859,37.109,67.383,47.363,50.293
1641937029.790,-15.137,34.668,-247.559,23.438,4.395
1641937029.794,5.371,53.711,-26.367,20.508,14.648
1641937029.798,22.949,50.293,208.984,51.758,23.438
1641937029.800,21.973,44.922,141.602,63.965,41.504
1641937029.804,8.301,40.039,50.781,45.410,43.457
1641937029.808,13.672,29.785,71.289,30.762,15.625
1641937029.812,37.598,26.367,51.270,47.363,21.484
1641937029.816,38.574,29.297,-46.875,71.289,41.016
1641937029.820,7.324,36.133,-60.059,56.641,42.480
1641937029.824,-4.395,43.457,-4.395,38.086,48.340
1641937029.827,17.090,49.805,66.406,38.574,36.133
1641937029.831,21.484,46.875,-117.676,52.246,33.203
1641937029.835,12.695,47.363,-163.574,47.363,53.711
1641937029.839,6.836,47.363,143.555,26.367,57.617
1641937029.843,20.508,35.645,88.867,30.762,42.480
1641937029.846,38.574,35.645,35.645,43.945,67.871
1641937029.850,34.668,41.992,178.223,52.734,113.770
1641937029.854,18.555,34.668,250.977,37.598,82.031
1641937029.858,17.090,29.297,145.508,21.973,62.012
1641937029.862,33.203,30.762,70.801,35.645,59.082
1641937029.866,32.227,30.273,8.301,40.527,21.484
1641937029.870,10.254,26.367,-78.125,23.438,23.438
1641937029.873,0.977,27.344,-110.840,14.648,45.898
1641937029.877,17.090,37.109,-370.605,27.832,20.508
1641937029.881,23.438,52.734,-183.105,38.574,8.789
1641937029.885,0.000,45.898,232.910,27.344,54.199
1641937029.889,-12.207,32.227,120.117,16.602,73.242
1641937029.890,7.812,32.715,7.812,27.344,61.035
1641937029.894,19.531,36.133,91.797,39.551,57.617
1641937029.898,10.742,42.480,135.254,42.969,45.410
1641937029.902,4.395,44.922,56.152,22.949,33.691
1641937029.906,10.254,41.992,67.383,20.996,19.043
1641937029.910,15.625,46.875,12.207,27.344,-2.441
1641937029.914,24.902,61.035,81.543,26.855,3.418
1641937029.917,13.672,67.871,67.383,14.648,24.902
1641937029.921,8.301,75.684,-6.836,-9.277,14.648
1641937029.925,38.086,82.031,385.254,6.836,12.207
1641937029.929,40.527,71.289,603.516,23.926,-8.789
1641937029.933,20.996,68.359,597.656,14.160,-28.320
1641937029.935,37.598,89.355,811.523,10.254,22.949
1641937029.939,66.406,102.051,979.004,28.809,44.922
1641937029.943,64.453,107.422,927.246,52.246,38.574
1641937029.947,32.715,115.723,918.457,42.969,59.570
1641937029.951,28.809,116.211,955.566,29.297,48.828
1641937029.955,53.223,112.305,837.402,38.086,33.203
1641937029.959,56.641,109.863,647.461,54.199,-1.953
1641937029.962,36.133,109.863,577.637,65.430,-15.137
1641937029.966,25.391,124.023,807.129,47.363,7.324
1641937029.970,25.879,128.418,928.711,35.645,20.996
1641937029.974,20.508,125.000,797.363,32.715,53.711
1641937029.978,-7.324,120.117,550.781,10.254,45.898
1641937029.981,-39.062,118.164,435.547,-11.719,52.246
1641937029.985,-49.805,104.980,403.809,-41.016,61.523
1641937029.989,-42.969,89.844,152.344,-47.852,38.086
1641937029.993,-48.340,93.750,44.922,-51.758,49.316
1641937029.997,-69.824,89.844,78.125,-74.219,74.219
1641937030.001,-84.961,82.520,-154.785,-90.820,57.129
1641937030.005,-72.266,73.730,-516.113,-89.355,11.230
1641937030.008,-56.152,69.336,-556.152,-68.848,-13.672
1641937030.012,-70.801,68.848,-265.137,-79.590,5.859
1641937030.016,-81.543,57.617,-301.758,-100.098,36.133
1641937030.020,-57.617,50.781,-430.664,-85.449,11.719
1641937030.024,-27.832,54.688,-324.219,-66.406,-39.062
1641937030.071,-31.250,59.082,-217.285,-54.199,2.930
1641937030.075,-52.246,47.852,-329.102,-67.871,-6.836
1641937030.079,-38.086,34.668,-527.832,-72.754,-35.156
1641937030.083,-9.277,39.062,-452.148,-39.551,-15.137
1641937030.087,-11.230,45.898,-285.156,-29.785,-9.277
1641937030.091,-21.484,48.340,-426.270,-36.133,24.414
1641937030.095,-15.625,45.898,-883.789,-53.223,-24.902
1641937030.098,5.371,50.781,-779.785,-48.340,-56.641
1641937030.102,14.648,38.086,-327.637,-14.160,-16.602
1641937030.106,-4.395,18.066,-310.059,-11.719,-2.441
1641937030.110,-12.207,17.578,-380.371,-21.973,20.020
1641937030.114,17.090,19.043,-345.703,-11.230,30.273
1641937030.074,36.133,17.578,-212.891,12.695,32.227
1641937030.078,20.508,20.996,-214.355,18.066,26.855
1641937030.082,10.742,29.785,-230.469,5.371,41.504
1641937030.086,30.762,36.133,-114.258,12.695,45.898
1641937030.090,50.293,25.879,-85.938,27.832,41.992
1641937030.094,34.180,12.695,-215.820,31.738,27.832
1641937030.098,8.301,15.625,-294.922,14.648,25.391
1641937030.101,19.043,20.996,-170.410,11.230,-11.719
1641937030.105,45.898,17.090,-43.945,38.086,-31.250
1641937030.109,40.527,15.137,-85.449,46.387,-14.160
1641937030.113,20.020,20.996,-36.133,31.738,-32.715
1641937030.117,18.066,15.625,43.457,21.484,-26.855
1641937030.131,39.551,5.371,28.320,41.016,-37.109
1641937030.135,54.199,2.930,-27.344,61.035,-46.387
1641937030.139,41.016,2.930,36.621,47.363,-20.020
1641937030.143,30.762,2.441,159.668,38.086,31.738
1641937030.147,49.316,-3.906,71.777,48.340,10.254
1641937030.151,60.059,-13.184,-329.102,61.035,-11.719
1641937030.155,45.410,-4.395,-461.426,65.918,35.156
1641937030.158,42.969,0.977,-161.621,56.152,32.227
1641937030.162,56.641,-5.859,-150.391,51.758,-17.090
1641937030.166,74.219,-4.395,-89.844,75.684,-13.672
1641937030.170,73.730,1.953,211.914,92.285,43.457
1641937030.174,45.410,2.441,222.656,76.172,42.480
1641937030.175,42.969,0.000,62.500,62.500,5.371
1641937030.179,63.965,-0.977,10.254,73.242,-19.531
1641937030.183,63.477,-2.441,147.949,87.891,23.926
1641937030.187,42.969,-5.859,182.129,78.125,69.824
1641937030.191,37.598,-2.441,73.242,61.523,62.988
1641937030.195,53.711,1.953,-25.391,66.406,54.199
1641937030.199,58.594,2.441,-42.480,82.520,41.016
1641937030.202,43.457,6.836,87.402,76.660,57.617
1641937030.206,22.461,-1.465,-157.227,53.223,21.484
1641937030.210,39.062,0.000,-226.074,57.129,-20.508
1641937030.214,62.012,8.301,48.340,74.707,2.930
1641937030.218,52.734,4.395,28.809,76.660,26.367
1641937030.220,36.133,2.930,-33.203,52.734,-5.371
1641937030.224,40.527,18.066,84.473,47.363,20.996
1641937030.228,61.035,29.785,261.230,67.871,106.445
1641937030.232,52.246,18.555,108.398,76.660,61.035
1641937030.236,31.250,8.789,58.594,75.195,30.273
1641937030.240,34.180,16.602,-26.855,66.406,33.203
1641937030.244,56.152,29.785,-23.926,79.102,34.180
1641937030.247,55.664,23.926,23.438,88.867,81.543
1641937030.251,35.156,16.113,-196.289,65.430,70.801
1641937030.255,29.785,27.832,-14.648,44.922,44.922
1641937030.259,48.340,23.926,160.645,52.246,7.324
1641937030.263,59.082,25.879,52.734,67.383,-8.301
1641937030.265,39.062,37.598,32.227,55.176,37.598
1641937030.269,29.785,40.527,88.379,39.062,74.219
1641937030.273,48.828,35.156,88.379,45.410,78.613
1641937030.277,58.105,30.273,-63.965,57.129,79.590
1641937030.281,47.852,30.273,-78.613,61.523,62.500
1641937030.285,36.621,27.832,-40.527,35.645,60.059
1641937030.289,41.992,27.344,-97.168,18.066,48.828
1641937030.292,58.105,18.555,-278.320,37.598,-5.371
1641937030.296,52.246,18.066,-292.969,47.363,-23.438
1641937030.300,36.133,26.367,58.105,34.180,3.418
1641937030.304,42.480,18.555,84.961,20.508,31.738
1641937030.308,64.941,20.996,0.977,39.551,35.645
1641937030.310,63.965,29.785,83.496,57.617,40.039
1641937030.314,44.434,28.320,153.320,48.828,79.590
1641937030.318,31.738,24.414,71.289,41.504,90.820
1641937030.322,40.039,25.391,39.062,42.969,110.352
1641937030.326,50.781,20.508,24.902,58.594,91.309
1641937030.330,35.645,15.625,-71.777,67.871,46.875
1641937030.334,20.508,13.672,-139.160,49.805,52.734
1641937030.337,26.855,7.812,-446.777,46.875,6.348
1641937030.341,44.922,18.555,-260.254,61.523,-0.488
1641937030.345,37.598,17.578,151.367,64.941,39.062
1641937030.349,15.625,9.766,39.062,44.434,22.461
1641937030.353,22.949,26.367,-42.480,26.855,15.625
1641937030.355,39.551,39.551,139.648,46.875,61.035
1641937030.359,34.180,33.203,229.980,47.363,66.895
1641937030.363,10.742,31.250,83.008,27.344,57.129
1641937030.367,10.742,37.598,8.301,25.879,78.613
1641937030.371,34.668,33.203,79.590,39.551,58.594
1641937030.375,38.574,23.926,10.742,53.223,60.547
1641937030.379,14.648,20.020,-281.250,41.016,69.824
1641937030.382,11.230,29.297,-344.727,24.414,41.016
1641937030.386,41.992,45.410,21.484,24.414,38.574
1641937030.390,55.664,45.410,183.594,42.969,32.715
1641937030.394,32.715,34.180,122.559,44.922,58.594
1641937030.398,14.160,28.320,98.145,20.020,58.594
1641937030.400,34.668,31.738,131.836,22.949,34.180
1641937030.404,52.246,21.484,100.586,43.945,7.812
1641937030.408,37.598,10.254,81.055,46.387,36.133
1641937030.412,18.066,15.137,110.840,29.785,73.730
1641937030.416,32.715,24.902,92.285,26.367,55.176
1641937030.420,54.199,22.461,-41.016,42.480,39.062
1641937030.424,47.852,21.973,-294.922,50.293,-4.395
1641937030.427,37.109,35.645,-53.223,45.410,34.180
1641937030.431,35.645,33.691,249.023,36.621,97.168
1641937030.435,41.992,22.949,137.695,41.992,53.223
1641937030.439,33.691,19.531,43.457,54.688,-13.184
1641937030.443,20.996,34.180,92.285,50.781,-31.738
1641937030.460,2.930,47.852,94.727,18.555,-7.324
1641937030.464,2.930,43.945,-34.180,-5.859,-11.230
1641937030.468,28.809,43.945,-41.504,10.254,-7.324
1641937030.472,20.020,46.387,202.148,17.090,23.926
1641937030.476,0.977,40.527,245.117,-7.324,3.418
1641937030.480,6.348,35.645,-1.465,-20.020,-48.340
1641937030.484,23.926,35.156,-102.051,-0.977,-31.738
1641937030.487,26.367,36.621,68.359,11.719,27.832
1641937030.491,7.324,39.551,138.184,5.371,29.297
1641937030.495,7.324,41.016,70.801,-2.441,14.160
1641937030.499,28.320,49.805,63.477,9.766,19.531
1641937030.503,33.203,57.129,152.832,25.879,63.477
1641937030.505,12.695,50.293,179.688,13.672,61.523
1641937030.509,-2.441,41.992,-177.734,0.977,1.953
1641937030.513,17.578,55.664,-150.879,4.395,26.367
1641937030.517,33.203,60.059,237.793,26.367,65.918
1641937030.521,19.531,52.246,191.895,26.367,46.387
1641937030.525,9.277,49.805,-5.859,0.977,9.277
1641937030.529,27.344,51.758,-60.547,6.836,6.836
1641937030.532,46.387,55.664,163.574,30.762,58.594
1641937030.536,33.691,44.922,168.945,43.945,63.965
1641937030.540,16.602,40.039,-117.188,22.949,30.762
1641937030.544,47.363,55.664,58.105,21.484,46.875
1641937030.548,77.637,52.246,277.344,55.176,72.754
1641937030.550,56.641,42.480,187.012,56.152,62.012
1641937030.554,25.391,43.945,143.066,36.621,37.109
1641937030.558,30.273,42.480,172.852,19.531,5.371
1641937030.562,49.316,36.133,87.402,29.297,-0.488
1641937030.566,47.852,36.133,30.762,58.105,12.207
1641937030.570,31.250,33.203,-28.320,46.387,-5.371
1641937030.574,29.785,45.410,-54.688,33.203,7.324
1641937030.577,51.270,59.082,108.398,41.992,77.637
1641937030.581,49.805,49.805,-36.621,45.898,71.777
1641937030.585,32.227,48.828,-118.652,44.922,-0.977
1641937030.589,28.320,59.570,256.836,33.691,49.805
1641937030.593,38.574,57.129,267.578,34.668,45.410
1641937030.611,57.617,59.570,177.246,49.316,34.668
1641937030.615,39.062,64.453,280.762,54.199,40.039
1641937030.619,3.906,52.734,361.328,29.785,17.090
1641937030.623,14.648,51.758,265.625,14.648,41.992
1641937030.627,49.316,59.082,240.723,45.898,76.172
1641937030.631,35.645,51.758,259.766,49.805,72.754
1641937030.635,18.555,65.430,238.281,39.062,60.547
1641937030.638,40.527,73.730,179.199,52.246,65.430
1641937030.642,44.434,60.059,-79.590,60.059,44.434
1641937030.646,51.270,71.289,155.762,76.172,36.621
1641937030.650,41.992,64.941,543.457,65.430,86.914
1641937030.654,20.996,49.805,516.113,43.945,47.852
1641937030.640,23.926,39.062,660.645,44.922,29.785
1641937030.644,41.016,37.598,790.527,67.871,13.184
1641937030.648,30.273,42.969,765.137,74.219,11.719
1641937030.652,6.836,40.039,712.402,48.340,48.828
1641937030.656,18.066,41.504,681.641,45.410,-10.254
1641937030.660,32.715,42.480,634.766,65.918,-22.949
1641937030.664,22.949,36.133,657.227,66.406,6.836
1641937030.667,1.465,25.391,469.727,47.363,-29.297
1641937030.671,3.906,31.738,381.836,37.598,-13.184
1641937030.675,20.508,41.992,624.512,46.387,37.109
1641937030.679,11.230,32.715,674.316,57.129,27.344
1641937030.683,2.441,29.297,547.852,50.293,40.527
1641937030.686,3.418,36.621,544.922,35.645,47.852
1641937030.690,26.367,33.203,689.941,48.340,42.969
1641937030.694,38.086,27.344,591.309,75.684,46.387
1641937030.698,9.277,26.367,495.605,66.895,62.500
1641937030.702,-13.672,31.738,567.871,39.062,91.309
1641937030.706,-10.254,32.715,515.137,29.785,77.148
1641937030.710,2.930,29.785,331.055,36.133,87.402
1641937030.713,-4.883,35.156,227.051,34.668,117.676
1641937030.717,-6.348,49.805,412.598,19.531,89.844
1641937030.721,10.254,48.828,554.199,12.695,137.695
1641937030.725,27.344,46.387,513.672,29.785,124.023
1641937030.729,19.531,46.875,404.785,40.039,61.035
1641937030.731,-0.977,50.781,463.379,22.949,55.176
1641937030.735,4.395,46.875,539.062,8.301,57.617
1641937030.739,31.250,41.992,275.879,19.043,45.410
1641937030.743,39.551,48.828,174.316,28.809,43.457
1641937030.747,24.414,52.734,323.242,16.602,50.293
1641937030.751,24.902,44.922,252.930,4.395,60.059
1641937030.755,39.062,33.203,-95.703,10.742,50.293
1641937030.758,46.875,41.504,-160.645,25.879,0.488
1641937030.762,25.879,52.734,188.477,20.020,29.297
1641937030.766,0.977,39.551,152.832,1.953,48.340
1641937030.770,20.020,37.598,-10.742,14.160,8.789
1641937030.774,33.203,42.480,73.730,29.297,50.293
1641937030.789,0.977,40.527,144.043,20.020,86.426
1641937030.793,-20.020,40.039,21.973,-8.301,18.066
1641937030.797,4.395,32.715,-184.570,-15.137,-52.246
1641937030.801,36.133,33.203,-188.477,8.301,-49.805
1641937030.805,38.574,40.039,-9.277,19.531,5.859
1641937030.809,21.973,31.250,-131.348,10.254,-9.766
1641937030.813,13.184,24.414,-533.691,-10.254,-63.965
1641937030.816,38.574,37.598,-425.781,2.441,-36.621
1641937030.820,49.316,41.016,-53.711,31.738,-4.395
1641937030.824,26.367,34.180,-142.090,19.043,-7.812
1641937030.828,19.043,28.320,-144.531,2.441,24.414
1641937030.832,33.691,26.367,-27.344,1.953,32.227
1641937030.836,46.875,28.320,-45.898,20.020,-3.906
1641937030.840,31.250,28.809,-110.352,22.949,-30.762
1641937030.844,17.578,29.785,-153.809,-3.906,-16.602
1641937030.848,23.926,29.785,-72.754,1.465,-6.836
1641937030.852,33.691,27.832,9.277,22.949,-14.648
1641937030.856,17.090,25.391,-57.129,24.414,9.766
1641937030.860,-6.348,25.879,-193.848,17.578,2.441
1641937030.863,4.395,31.250,-220.215,11.230,5.371
1641937030.867,32.715,39.062,-90.332,30.762,24.414
1641937030.871,26.855,32.715,-306.152,41.504,12.207
1641937030.875,2.930,41.992,-433.594,24.414,30.762
1641937030.879,12.207,53.223,-31.250,18.066,32.715
1641937030.879,35.645,38.086,0.000,29.297,16.113
1641937030.883,42.480,20.020,-80.078,52.246,26.367
1641937030.887,42.480,29.785,-2.930,60.059,32.227
1641937030.891,23.438,49.316,27.344,28.809,47.852
1641937030.895,22.461,45.898,-1.465,11.230,83.984
1641937030.899,32.227,36.621,-142.578,20.020,95.703
1641937030.903,7.324,37.109,-192.383,9.277,35.156
1641937030.906,-3.418,47.363,-65.918,-15.137,-5.859
1641937030.910,1.953,44.922,-165.527,-23.926,11.719
1641937030.914,2.930,44.922,-451.172,-17.578,22.949
1641937030.918,-7.812,49.316,-202.148,-21.484,34.180
1641937030.922,-26.855,43.457,121.582,-35.645,49.316
1641937030.925,-27.344,48.340,105.957,-53.711,43.457
1641937030.929,-4.883,53.223,149.414,-42.480,45.410
1641937030.933,-9.277,52.246,214.355,-24.414,62.500
1641937030.937,-42.480,44.434,266.602,-38.086,94.238
1641937030.941,-39.062,40.039,233.887,-50.781,80.566
1641937030.945,-4.883,41.504,118.164,-42.969,38.574
1641937030.949,12.207,40.039,99.121,-20.508,40.039
1641937030.952,2.930,32.715,276.367,-10.742,72.266
1641937030.956,-13.672,12.207,25.391,-24.902,18.555
1641937030.960,7.812,22.949,-71.289,-16.113,-4.395
1641937030.964,34.668,34.180,243.652,11.719,55.176
1641937030.968,20.508,24.902,168.457,15.137,42.480
1641937030.970,2.441,30.273,137.695,-4.883,39.551
1641937030.974,20.020,40.039,210.449,-8.301,32.227
1641937030.978,39.551,39.551,367.188,17.578,61.523
1641937030.982,18.555,29.785,305.176,24.414,54.199
1641937030.986,-6.348,29.785,223.633,14.160,20.508
1641937030.990,3.906,29.297,197.266,9.766,32.227
1641937030.994,29.297,28.320,127.441,20.996,4.883
1641937030.997,23.438,33.691,122.070,38.574,-11.719
1641937031.001,-5.859,34.668,-29.785,26.855,-6.348
1641937031.005,-1.953,37.598,113.770,9.277,21.484
1641937031.009,20.508,26.367,297.852,17.090,27.832
1641937031.013,22.949,16.602,238.281,30.762,6.836
1641937031.016,7.324,13.672,226.074,20.996,-9.766
1641937031.020,-1.953,14.648,199.707,-0.977,-0.488
1641937031.024,15.625,16.602,204.102,7.324,35.645
1641937031.028,36.621,13.672,174.316,27.344,22.461
1641937031.032,27.344,13.184,151.855,31.250,-13.672
1641937031.036,4.883,10.742,107.910,15.137,-10.254
1641937031.040,18.555,14.160,83.008,14.648,25.391
1641937031.043,46.875,14.160,-101.074,44.434,-12.207
1641937031.047,44.434,16.113,-160.156,50.781,-38.086
1641937031.051,28.320,26.855,199.707,37.598,31.250
1641937031.055,30.762,23.926,169.434,26.367,53.711
1641937031.059,51.758,27.832,85.449,33.691,40.527
1641937031.060,53.223,39.062,134.277,51.758,22.461
1641937031.064,27.344,41.504,175.781,39.551,19.531
1641937031.068,6.836,37.598,64.453,19.043,-31.250
1641937031.072,20.996,37.109,32.715,15.137,-53.711
1641937031.076,33.203,45.898,90.820,31.738,-56.152
1641937031.080,16.113,41.504,50.781,41.016,-36.621
1641937031.084,5.371,32.227,-90.820,17.090,-32.227
1641937031.087,18.555,31.250,-362.305,15.137,-59.082
1641937031.091,35.156,40.527,-174.316,25.391,-20.996
1641937031.095,25.879,34.180,151.855,31.738,20.996
1641937031.099,12.695,30.273,51.270,29.297,30.273
1641937031.103,15.137,40.527,47.363,9.766,27.832
1641937031.104,17.578,36.133,81.055,7.324,-7.812
1641937031.108,13.184,37.598,102.051,20.996,8.301
1641937031.112,-0.977,36.133,66.895,16.113,12.207
1641937031.116,0.000,25.391,29.785,3.418,-25.879
1641937031.120,22.461,22.949,121.582,13.672,2.441
1641937031.124,29.297,22.461,27.344,31.250,3.418
1641937031.128,1.953,21.484,-262.695,18.555,-1.465
1641937031.131,-6.836,27.832,-363.281,-0.977,7.812
1641937031.135,25.879,40.039,-68.359,16.602,-17.090
1641937031.139,38.086,37.598,81.055,42.969,-3.418
1641937031.143,18.066,31.738,-48.828,34.668,-32.715
1641937031.147,17.090,32.227,-41.504,10.742,-53.711
1641937031.164,42.969,34.180,133.789,19.043,0.000
1641937031.168,62.500,24.902,94.727,42.480,30.273
1641937031.172,49.805,25.391,-89.844,43.945,-49.805
1641937031.176,33.691,39.551,-1.465,32.715,-25.879
1641937031.180,45.898,45.898,109.863,21.484,44.922
1641937031.184,61.035,43.945,-77.148,38.086,-6.836
1641937031.188,44.434,39.551,-314.941,47.852,-28.809
1641937031.191,21.484,41.016,-64.453,25.391,24.414
1641937031.195,15.137,32.227,146.484,2.441,38.086
1641937031.199,28.809,23.438,-43.945,11.719,15.137
1641937031.203,31.738,25.879,-33.691,37.109,18.066
1641937031.207,10.742,34.180,107.910,31.250,35.156
1641937031.209,-5.371,33.691,144.531,18.555,18.066
1641937031.213,-4.883,20.508,-6.836,28.809,-9.277
1641937031.217,2.441,16.602,-35.156,46.387,5.859
1641937031.221,-9.766,20.996,160.645,44.434,27.832
1641937031.225,-26.367,21.484,83.008,28.809,6.348
1641937031.229,-12.695,20.996,-125.000,36.133,-13.184
1641937031.233,12.695,26.367,-203.125,53.711,11.230
1641937031.236,13.672,35.645,-3.906,54.688,41.504
1641937031.240,-2.441,34.668,194.824,38.086,38.574
1641937031.244,-4.395,25.879,-128.906,24.414,8.301
1641937031.248,20.020,27.832,-188.477,37.109,-4.883
1641937031.252,35.156,29.785,231.445,51.270,48.340
1641937031.255,15.625,21.973,129.883,30.273,68.359
1641937031.259,17.578,27.344,-80.566,13.184,4.883
1641937031.263,43.945,43.457,64.941,25.879,26.367
1641937031.267,54.199,53.223,219.238,40.039,104.980
1641937031.271,29.785,46.387,112.305,31.738,70.312
1641937031.275,12.695,34.180,-78.613,9.766,14.648
1641937031.279,41.016,34.668,-102.051,7.324,23.438
1641937031.282,54.199,38.574,85.449,26.855,44.922
1641937031.286,24.414,33.203,45.898,26.855,53.711
1641937031.290,6.348,39.062,-236.816,4.395,1.953
1641937031.294,25.391,54.199,-18.555,-0.488,7.812
1641937031.298,44.922,48.828,252.930,18.066,57.129
1641937031.301,36.621,45.410,144.043,28.320,44.434
1641937031.305,14.648,47.852,112.793,13.672,25.879
1641937031.309,26.855,37.598,170.410,2.441,41.504
1641937031.313,54.688,30.762,94.238,18.555,26.367
1641937031.317,53.223,36.621,-61.035,39.062,-26.855
1641937031.321,28.809,37.598,-150.391,28.320,-75.684
1641937031.325,14.160,36.621,-198.730,9.766,-83.008
1641937031.328,35.645,44.922,-42.480,16.602,-69.336
1641937031.332,37.109,29.297,-146.973,28.320,-40.039
1641937031.336,17.090,26.367,-289.551,19.043,-53.223
1641937031.340,8.301,37.598,12.695,-1.465,-31.738
1641937031.344,20.508,35.156,0.000,3.906,-21.484
1641937031.345,38.086,40.527,-10.742,20.508,-18.555
1641937031.349,19.043,41.016,128.906,13.672,52.734
1641937031.353,-4.395,38.574,173.340,-5.859,30.762
1641937031.357,3.418,37.109,82.031,-16.113,-5.859
1641937031.361,22.949,33.691,37.109,2.930,13.184
1641937031.365,25.391,33.203,-5.371,7.324,14.160
1641937031.369,4.395,42.969,-15.137,0.977,20.508
1641937031.372,-8.301,37.598,-4.395,2.441,5.859
1641937031.376,6.836,31.250,-238.281,14.160,-31.738
1641937031.380,20.020,44.434,-51.270,25.391,-3.906
1641937031.384,2.441,43.457,322.266,13.184,45.898
1641937031.388,-19.531,33.203,208.984,2.441,51.758
1641937031.390,-14.648,26.855,152.344,14.160,28.320
1641937031.394,-9.277,27.344,286.133,36.133,29.297
1641937031.398,-26.855,27.344,381.836,37.598,64.941
1641937031.402,-39.062,28.809,292.969,14.160,60.059
1641937031.406,-15.137,33.203,187.988,17.090,15.625
1641937031.410,14.648,24.414,129.395,52.734,18.555
1641937031.414,15.137,28.320,172.363,53.711,27.832
1641937031.417,-3.418,26.367,-3.418,24.902,4.395
1641937031.421,6.836,30.273,-155.273,6.348,-1.953
1641937031.425,43.945,43.945,76.172,16.602,1.953
1641937031.429,52.246,37.598,169.922,30.762,3.906
1641937031.433,36.621,28.320,92.285,11.719,-5.371
1641937031.436,33.691,33.203,104.492,-2.930,-2.441
1641937031.440,49.316,32.227,190.918,3.418,10.742
1641937031.444,50.293,21.973,111.816,24.414,6.836
1641937031.448,23.926,24.414,16.113,21.973,4.395
1641937031.452,20.508,39.062,72.266,9.277,40.527
1641937031.456,42.480,37.598,69.336,19.043,70.312
1641937031.460,46.875,29.297,-128.906,22.949,20.020
1641937031.463,26.367,30.762,-347.168,19.043,-33.691
1641937031.467,9.766,46.387,-96.680,3.418,-20.508
1641937031.471,24.414,45.410,183.105,3.418,-12.207
1641937031.475,51.270,38.574,76.660,25.391,-25.391
1641937031.479,35.645,36.133,-27.832,29.297,-20.996
1641937031.481,15.137,40.039,-25.391,13.184,-26.855
1641937031.485,37.109,43.457,112.305,12.207,-13.672
1641937031.489,51.758,30.273,6.836,32.715,-7.324
1641937031.493,43.945,31.250,-36.133,46.387,-18.555
1641937031.497,30.273,44.434,160.156,30.762,21.484
1641937031.501,27.832,43.457,51.270,17.578,27.344
1641937031.505,39.551,36.621,-257.812,29.297,-10.254
1641937031.508,46.387,47.852,-238.281,38.574,-8.789
1641937031.512,44.434,56.152,178.711,39.551,16.113
1641937031.516,33.691,45.410,163.574,22.461,-11.719
1641937031.520,44.434,49.316,72.754,22.949,41.504
1641937031.524,59.082,56.152,155.762,43.945,83.984
1641937031.525,42.480,47.363,207.520,48.828,64.453
1641937031.529,20.508,30.273,161.621,33.691,65.430
1641937031.533,30.762,28.320,-7.812,28.809,78.125
1641937031.537,48.340,42.480,33.691,46.387,92.773
1641937031.541,35.156,36.133,180.664,54.199,73.242
1641937031.545,7.324,19.531,47.852,33.203,27.832
1641937031.549,0.000,13.672,-349.121,14.648,13.672
1641937031.552,23.438,26.855,-233.887,22.461,34.180
1641937031.556,36.621,36.133,189.941,45.410,58.105
1641937031.560,3.906,34.180,102.539,45.898,41.992
1641937031.564,-10.254,40.039,44.434,31.250,5.371
1641937031.568,17.578,46.875,187.988,44.434,33.203
1641937031.586,19.531,43.945,243.652,62.500,70.312
1641937031.590,-3.418,41.016,148.926,53.711,68.848
1641937031.594,-14.648,39.551,72.754,31.738,96.680
1641937031.598,4.883,33.203,119.141,35.156,81.543
1641937031.602,25.879,37.109,130.371,54.199,73.242
1641937031.606,11.230,38.086,14.648,50.781,69.336
1641937031.610,2.930,34.668,-102.539,37.598,62.012
1641937031.613,22.461,38.086,-48.828,39.062,93.262
1641937031.617,45.410,46.387,128.906,60.547,78.125
1641937031.621,36.621,36.621,-64.941,58.594,77.148
1641937031.625,18.066,34.180,-208.008,31.250,58.594
1641937031.629,29.297,45.898,121.582,29.297,43.945
1641937031.630,43.457,34.668,178.711,42.480,70.801
1641937031.634,35.156,23.926,113.281,55.176,56.641
1641937031.638,10.742,31.250,185.059,35.645,55.664
1641937031.642,8.301,27.832,177.734,6.348,66.406
1641937031.646,34.668,22.461,78.125,29.785,50.781
1641937031.650,41.504,26.367,-12.207,53.223,49.805
1641937031.654,1.465,29.297,-39.551,28.320,62.988
1641937031.657,-21.973,37.109,59.570,1.465,56.152
1641937031.661,-18.555,27.344,-70.312,9.277,15.137
1641937031.665,-22.461,12.207,-431.641,31.738,-14.160
1641937031.669,-23.926,28.320,-202.637,26.855,29.297
1641937031.673,-26.855,38.574,137.207,13.184,68.359
1641937031.675,-21.973,34.180,37.109,1.465,18.555
1641937031.679,1.465,43.945,35.156,9.277,-10.742
1641937031.683,15.137,51.270,172.363,32.715,8.301
1641937031.687,1.953,40.527,229.492,20.020,32.227
1641937031.691,-10.254,25.879,121.094,5.859,21.973
1641937031.695,13.672,17.090,-22.461,25.879,1.465
1641937031.699,35.156,20.508,-4.883,53.711,25.879
1641937031.702,19.043,24.902,171.875,58.594,82.031
1641937031.706,3.906,9.277,-97.656,39.551,61.035
1641937031.710,20.020,14.648,-186.035,41.992,58.594
1641937031.714,41.504,28.809,216.797,60.547,114.258
1641937031.718,24.902,19.531,63.477,57.129,74.219
1641937031.721,10.742,23.926,-134.277,32.227,13.672
1641937031.725,30.273,35.645,37.109,28.320,1.953
1641937031.729,53.711,37.598,231.934,46.875,41.992
1641937031.733,46.387,36.133,168.945,36.621,15.625
1641937031.737,29.785,35.156,61.035,10.742,-10.254
1641937031.741,34.668,27.832,-24.902,2.930,19.531
1641937031.745,41.504,22.949,-13.184,10.254,19.531
1641937031.748,32.715,19.043,35.645,21.484,23.438
1641937031.752,20.508,22.461,-211.914,5.371,2.441
1641937031.756,22.461,43.945,-69.824,-8.789,21.484
1641937031.760,36.621,47.363,147.949,5.859,55.664
1641937031.764,42.480,40.527,24.414,23.926,20.020
1641937031.766,33.691,47.363,77.637,23.926,33.691
1641937031.770,32.715,46.387,148.926,14.648,85.449
1641937031.774,42.969,37.109,118.652,21.973,88.867
1641937031.778,48.828,34.668,39.062,41.016,54.688
1641937031.782,38.086,42.969,-3.906,44.922,13.672
1641937031.786,30.762,48.340,55.176,34.668,14.648
1641937031.790,39.551,48.828,16.113,32.227,25.879
1641937031.793,52.734,42.969,-171.875,49.805,38.086
1641937031.797,44.434,41.992,-158.203,58.105,41.016
1641937031.801,33.203,49.805,217.773,39.551,56.641
1641937031.805,38.086,40.039,240.234,22.461,47.852
1641937031.809,57.617,31.738,90.820,29.785,24.902
1641937031.810,62.988,34.180,140.137,43.945,23.438
1641937031.814,44.434,33.203,226.562,30.273,35.645
1641937031.818,27.344,36.133,134.277,12.695,30.273
1641937031.822,41.992,43.457,70.801,15.625,27.832
1641937031.826,61.523,41.504,67.871,33.203,29.785
1641937031.830,43.457,36.621,-31.738,32.227,35.645
1641937031.834,25.391,32.227,-64.453,4.883,67.871
1641937031.837,39.062,24.414,-311.523,3.906,48.828
1641937031.841,55.664,24.414,-151.855,23.438,66.406
1641937031.845,38.086,25.879,190.430,18.066,115.234
1641937031.849,15.137,22.461,68.359,0.977,89.355
1641937031.853,27.344,23.438,45.898,-4.395,63.965
1641937031.871,46.875,24.414,143.555,15.625,46.875
1641937031.875,43.945,27.344,204.102,27.344,82.520
1641937031.879,27.832,30.762,114.746,12.207,72.266
1641937031.883,22.461,30.273,33.691,8.789,27.832
1641937031.887,47.363,35.156,114.258,30.273,38.086
1641937031.891,57.129,25.879,65.430,50.293,67.383
1641937031.895,25.879,9.766,-227.539,33.691,51.758
1641937031.898,22.949,20.020,-364.258,17.578,14.160
1641937031.902,63.477,39.551,-8.789,50.293,61.523
1641937031.906,76.172,22.949,179.199,73.730,60.547
1641937031.910,39.551,4.883,-14.648,53.711,1.953
1641937031.914,12.207,10.254,-34.180,23.926,-3.418
1641937031.900,25.391,11.230,83.008,28.809,59.570
1641937031.904,39.551,11.719,-27.344,54.199,26.367
1641937031.908,40.039,20.508,-174.316,59.082,-66.895
1641937031.912,25.879,25.879,-74.707,44.434,-31.250
1641937031.916,23.926,21.484,29.297,28.809,16.602
1641937031.920,39.551,20.020,-114.746,38.086,20.508
1641937031.924,37.598,29.297,-173.828,46.875,9.766
1641937031.927,30.762,41.992,15.625,31.250,22.461
1641937031.931,33.203,39.062,139.648,20.996,95.215
1641937031.935,43.945,28.809,-46.387,22.949,43.945
1641937031.939,44.922,29.297,-421.875,31.738,-28.320
1641937031.943,28.809,41.504,-225.098,29.297,7.324
1641937031.960,18.066,36.133,72.266,11.230,38.574
1641937031.964,43.457,37.598,-26.855,15.625,24.902
1641937031.968,64.453,50.293,-21.484,34.668,56.152
1641937031.972,47.363,51.758,58.105,37.109,103.027
1641937031.976,33.691,44.922,31.738,25.391,68.359
1641937031.980,44.434,38.574,-136.719,23.926,15.625
1641937031.984,53.711,43.457,-196.289,50.293,49.316
1641937031.987,41.992,44.922,20.020,57.617,117.676
1641937031.991,18.555,38.086,164.551,43.457,116.699
1641937031.995,14.648,24.414,-197.754,36.133,50.293
1641937031.999,42.969,27.344,-249.023,46.875,40.039
1641937032.003,52.246,36.621,143.066,59.082,91.309
1641937032.004,21.484,30.273,38.086,41.504,100.586
1641937032.008,12.695,27.832,-126.465,30.762,71.777
1641937032.012,27.344,35.645,26.855,37.109,72.266
1641937032.016,25.391,35.156,169.434,47.363,85.938
1641937032.020,0.000,24.902,83.496,34.180,55.664
1641937032.024,-1.465,22.949,-146.484,8.301,45.410
1641937032.028,31.738,33.203,-189.453,10.742,53.711
1641937032.031,49.805,39.551,41.504,33.691,70.312
1641937032.035,33.203,27.832,24.902,41.992,53.223
1641937032.039,11.230,25.879,-308.594,24.414,-6.348
1641937032.043,27.344,41.016,-118.164,19.531,26.855
1641937032.047,49.316,34.180,107.910,41.016,67.383
1641937032.051,43.457,34.668,-13.184,52.734,61.523
1641937032.055,32.227,44.434,1.953,41.504,69.824
1641937032.059,46.875,42.969,107.910,23.926,83.496
1641937032.063,66.406,36.621,43.457,29.297,62.988
1641937032.067,54.688,34.668,-109.863,48.828,40.039
1641937032.071,34.668,39.551,-83.008,43.945,86.426
1641937032.075,36.133,35.156,-50.293,24.414,82.031
1641937032.078,62.988,30.273,63.477,33.691,43.457
1641937032.082,70.801,25.391,-125.488,53.711,10.254
1641937032.086,54.199,39.062,-264.160,48.340,-11.719
1641937032.090,41.504,51.270,110.840,28.809,30.273
1641937032.094,48.340,32.227,108.887,28.320,23.438
1641937032.095,62.988,30.762,21.973,47.363,-5.859
1641937032.099,48.828,38.574,116.699,49.805,18.066
1641937032.103,22.461,32.715,109.375,25.879,28.809
1641937032.107,17.578,26.367,-56.152,6.348,33.203
1641937032.111,26.367,21.484,-93.750,18.066,24.414
1641937032.115,18.555,26.855,-77.148,22.461,20.020
1641937032.119,-5.859,28.809,-165.039,0.000,12.695
1641937032.122,-12.207,20.508,-213.379,-8.789,12.207
1641937032.126,5.859,23.926,-466.797,-6.836,2.441
1641937032.130,17.090,41.504,-305.176,2.441,6.348
1641937032.134,9.277,43.945,60.059,-1.953,18.066
1641937032.138,9.277,34.668,-29.297,-14.160,19.043
1641937032.140,31.738,31.738,1.465,1.465,24.902
1641937032.144,44.434,33.203,120.605,17.578,26.367
1641937032.148,35.156,33.203,125.488,30.273,47.852
1641937032.152,16.602,34.180,17.578,17.090,70.801
1641937032.156,25.391,41.992,8.301,10.742,84.961
1641937032.160,44.434,39.551,-17.090,40.039,85.449
1641937032.164,25.391,34.668,-30.762,39.062,45.410
1641937032.167,-5.859,25.391,-179.199,15.625,13.672
1641937032.171,-10.742,20.508,-299.805,-0.977,1.465
1641937032.175,16.602,22.949,12.695,19.043,24.414
1641937032.179,13.184,17.090,113.770,41.504,29.297
1641937032.183,-7.812,17.578,15.625,23.438,22.949
1641937032.186,0.488,22.949,5.859,10.254,24.414
1641937032.190,19.531,16.113,125.000,19.531,62.012
1641937032.194,25.391,9.277,100.098,32.227,73.730
1641937032.198,18.555,18.555,31.250,35.645,71.289
1641937032.202,19.043,26.367,57.617,9.277,98.633
1641937032.206,33.203,23.438,-54.199,-0.977,95.703
1641937032.210,56.152,24.414,-133.301,17.578,80.078
1641937032.213,47.363,22.461,-254.883,20.020,49.316
1641937032.217,39.062,27.832,-93.262,13.184,42.480
1641937032.221,55.664,23.438,140.625,11.719,96.191
1641937032.225,76.172,28.320,49.805,31.738,88.867
1641937032.229,57.617,33.203,-19.043,36.133,37.109
1641937032.261,26.367,35.645,-14.648,27.832,45.410
1641937032.265,38.086,38.574,45.410,33.691,81.543
1641937032.269,55.664,27.832,-124.512,44.434,41.016
1641937032.273,49.316,25.879,-149.902,47.363,39.062
1641937032.277,28.320,27.344,50.781,25.879,78.125
1641937032.281,23.926,23.438,-55.176,17.578,66.406
1641937032.285,39.551,19.531,-314.941,36.133,50.293
1641937032.288,45.410,34.668,-309.570,48.828,38.086
1641937032.292,28.809,51.758,38.086,44.922,68.359
1641937032.296,8.789,41.504,83.008,26.855,79.102
1641937032.300,18.066,37.598,29.297,26.367,73.242
1641937032.304,38.086,42.480,61.523,40.527,85.938
1641937032.275,29.297,42.480,104.492,37.598,77.148
1641937032.279,8.301,35.156,60.547,17.090,34.668
1641937032.283,24.902,23.926,-91.309,10.742,60.059
1641937032.287,56.152,26.367,-28.809,30.273,91.797
1641937032.291,55.664,23.438,159.668,32.227,109.375
1641937032.295,26.855,13.184,-45.898,8.789,157.715
1641937032.299,26.855,16.113,-235.352,3.906,95.703
1641937032.302,49.805,25.391,-32.715,24.414,42.480
1641937032.306,44.434,25.879,84.473,37.109,71.777
1641937032.310,15.137,18.555,-65.918,23.926,54.688
1641937032.314,1.953,26.367,-133.301,9.766,64.453
1641937032.318,20.996,31.250,-4.883,16.113,107.422
1641937032.336,29.297,26.367,89.844,32.227,79.590
1641937032.340,3.418,14.160,-125.488,31.738,15.625
1641937032.344,-12.207,14.648,-491.211,14.160,-31.250
1641937032.348,19.043,39.062,-192.383,22.949,44.434
1641937032.352,35.156,39.062,91.797,48.828,108.398
1641937032.356,5.859,20.508,-75.684,41.992,68.848
1641937032.360,-5.859,27.344,-143.066,22.949,61.523
1641937032.363,9.766,44.922,112.793,13.672,95.703
1641937032.367,23.926,40.527,351.074,30.273,96.680
1641937032.371,-0.488,21.973,138.184,48.340,32.227
1641937032.375,-29.785,27.832,46.387,16.602,23.438
1641937032.379,-8.789,52.246,436.523,-1.953,80.566
1641937032.380,16.602,49.805,480.957,8.789,87.891
1641937032.384,22.949,55.664,346.680,21.484,57.617
1641937032.388,17.578,75.195,385.742,14.160,46.387
1641937032.392,4.883,74.707,421.387,-12.695,50.293
1641937032.396,6.348,72.266,359.863,-4.395,38.574
1641937032.400,14.648,86.426,219.238,14.160,9.277
1641937032.404,6.348,97.656,213.379,19.043,67.383
1641937032.407,2.930,99.609,381.348,13.184,85.938
1641937032.411,8.789,104.980,344.238,10.742,46.387
1641937032.415,6.836,110.352,-67.383,27.344,19.531
1641937032.419,-17.090,127.930,30.762,30.273,53.223
1641937032.423,-56.152,125.488,237.793,6.836,64.453
1641937032.425,-62.500,108.398,44.434,-22.461,67.383
1641937032.429,-47.363,107.422,-43.945,-19.043,83.984
1641937032.433,-59.570,99.121,-64.453,-8.789,91.309
1641937032.437,-95.215,85.449,-176.758,-34.668,70.801
1641937032.441,-108.887,83.008,-351.074,-53.711,38.086
1641937032.445,-101.074,71.289,-580.566,-55.176,35.645
1641937032.449,-98.145,64.453,-652.344,-44.922,43.457
1641937032.452,-104.492,63.965,-553.711,-46.875,-4.395
1641937032.456,-110.352,47.852,-769.043,-73.730,-41.504
1641937032.460,-80.566,44.922,-887.695,-73.730,11.719
1641937032.464,-44.922,42.969,-566.406,-53.711,48.828
1641937032.468,-52.246,22.949,-580.566,-53.223,47.852
1641937032.470,-55.664,24.902,-693.359,-63.477,39.551
1641937032.474,-21.484,35.645,-556.152,-63.477,20.996
1641937032.478,7.812,30.273,-396.484,-35.156,47.363
1641937032.482,0.488,22.461,-435.547,-24.902,52.734
1641937032.486,-8.301,15.625,-484.863,-27.344,45.410
1641937032.490,6.348,5.371,-566.406,-24.414,34.668
1641937032.494,32.715,12.207,-479.004,-6.836,54.688
1641937032.497,37.598,12.695,-393.066,20.020,80.566
1641937032.501,15.625,8.789,-671.387,5.859,40.527
1641937032.505,18.066,21.973,-459.473,0.488,43.945
1641937032.509,40.527,12.695,-214.355,27.832,29.785
1641937032.513,43.945,-3.906,-282.715,43.945,12.207
1641937032.516,30.762,-2.441,-208.008,40.527,51.758
1641937032.520,25.391,2.930,-86.426,21.973,78.125
1641937032.524,47.852,-4.395,-117.676,25.879,62.012
1641937032.528,63.477,-3.906,-226.562,53.223,34.180
1641937032.532,47.852,-0.488,-120.117,54.199,72.266
1641937032.536,31.738,-7.324,-106.445,32.715,61.035
1641937032.540,39.062,-4.883,-98.145,24.902,34.668
1641937032.543,50.781,-9.766,-219.727,40.039,14.160
1641937032.547,52.734,-7.324,-262.207,52.246,39.062
1641937032.551,57.129,-1.465,112.305,47.363,41.504
1641937032.555,62.012,-9.766,111.816,42.969,-10.254
1641937032.559,77.637,-6.348,99.609,59.082,20.020
1641937032.560,85.938,-4.883,202.148,77.637,29.785
1641937032.564,64.453,-8.789,232.910,68.359,22.949
1641937032.568,56.641,-19.531,106.445,56.641,0.977
1641937032.572,81.055,-9.277,76.660,74.707,-27.344
1641937032.576,92.285,1.465,163.086,95.703,3.906
1641937032.580,81.543,-2.441,78.125,99.121,24.902
1641937032.584,76.660,-1.465,7.812,82.520,20.508
1641937032.587,79.590,-9.277,-258.301,67.871,-9.766
1641937032.591,92.285,2.930,-120.117,83.008,-17.090
1641937032.595,85.938,9.766,308.105,88.379,32.227
1641937032.599,64.941,-8.301,179.688,66.406,33.691
1641937032.603,76.172,-11.719,112.305,60.059,47.852
1641937032.605,95.703,-6.348,288.086,73.730,76.660
1641937032.609,90.820,-11.230,333.008,80.078,83.496
1641937032.613,63.965,-14.160,274.902,61.035,74.707
1641937032.617,58.105,-15.625,225.586,38.086,65.918
1641937032.621,80.566,-13.184,269.531,53.223,77.148
1641937032.625,77.148,-5.371,202.637,67.383,28.320
1641937032.629,45.898,-10.742,-46.387,49.316,1.953
1641937032.632,41.992,-8.301,-147.949,31.250,-10.742
1641937032.636,66.406,4.395,93.262,42.480,-22.461
1641937032.640,72.266,0.488,253.906,64.453,24.902
1641937032.644,53.711,-3.906,163.574,60.547,30.273
1641937032.648,39.551,2.441,217.285,37.598,18.555
1641937032.651,55.176,2.441,321.777,38.086,19.043
1641937032.655,59.570,-11.719,258.789,62.500,17.090
1641937032.659,44.922,-11.719,156.738,65.918,11.719
1641937032.663,42.969,-3.418,218.750,51.758,-1.465
1641937032.667,50.293,-0.977,311.035,39.551,39.551
1641937032.671,55.664,-0.488,76.172,54.688,50.781
1641937032.675,51.758,5.859,-186.523,72.754,24.902
1641937032.678,37.109,19.531,23.438,56.641,50.293
1641937032.682,34.668,8.301,217.285,43.945,60.059
1641937032.686,53.711,-3.418,127.441,54.199,33.691
1641937032.690,49.805,-1.465,73.242,63.965,1.953
1641937032.694,28.809,-3.906,107.422,59.082,-2.441
1641937032.696,27.344,-2.441,255.859,42.969,66.895
1641937032.700,46.875,-4.883,97.168,44.922,44.434
1641937032.704,63.965,3.418,46.387,61.035,21.973
1641937032.708,53.711,14.648,284.180,62.500,61.035
1641937032.712,38.574,11.719,262.207,53.223,43.945
1641937032.716,45.898,4.395,85.938,50.293,8.301
1641937032.720,63.477,0.977,34.180,67.383,17.090
1641937032.723,55.176,0.000,200.195,68.848,61.523
1641937032.727,34.180,-5.371,285.645,46.875,40.527
1641937032.731,28.320,-11.230,22.461,41.016,8.301
1641937032.735,43.945,-4.395,-16.602,56.152,24.414
1641937032.739,47.363,0.000,250.488,68.848,36.133
1641937032.755,19.531,-0.977,218.750,52.246,53.711
1641937032.759,14.160,4.883,62.012,37.598,54.688
1641937032.763,37.598,8.789,105.469,54.688,69.824
1641937032.767,48.828,8.789,279.785,69.824,118.164
1641937032.771,26.855,5.371,197.754,62.500,80.566
1641937032.775,2.930,3.906,-169.922,32.715,-20.508
1641937032.779,23.926,10.254,-93.262,29.785,-18.066
1641937032.782,48.340,11.230,187.012,55.176,-2.930
1641937032.786,33.203,13.184,63.477,52.246,-19.043
1641937032.790,15.625,18.066,-68.848,37.109,32.227
1641937032.794,28.809,19.531,110.352,25.391,57.617
1641937032.798,50.293,15.137,213.379,42.480,6.836
1641937032.801,45.898,11.719,158.203,56.641,13.184
1641937032.805,17.578,7.324,136.230,37.109,52.246
1641937032.809,14.160,6.348,174.316,25.391,68.359
1641937032.813,30.273,6.836,192.871,37.598,103.516
1641937032.817,30.273,11.719,50.293,54.199,104.980
1641937032.821,12.695,13.672,-18.066,44.922,75.195
1641937032.825,14.160,9.277,12.695,28.809,62.988
1641937032.828,46.387,10.742,87.891,40.039,63.965
1641937032.832,50.781,-3.418,-53.223,57.129,43.945
1641937032.836,21.484,0.488,-115.723,52.734,53.711
1641937032.840,16.113,21.484,256.836,34.668,76.172
1641937032.844,37.109,8.789,229.980,31.738,47.852
1641937032.846,52.246,3.906,94.238,43.945,8.301
1641937032.850,41.016,14.648,140.625,40.039,25.879
1641937032.854,24.902,18.555,227.051,22.949,91.797
1641937032.858,21.973,15.137,153.809,18.066,58.105
1641937032.862,35.645,12.207,88.867,38.574,14.160
1641937032.866,35.156,12.695,125.000,54.199,88.867
1641937032.870,14.160,11.230,14.648,40.039,97.168
1641937032.873,10.254,4.883,-102.051,29.785,45.898
1641937032.877,25.391,8.301,-341.309,47.363,19.531
1641937032.881,32.715,21.484,-163.086,61.035,33.691
1641937032.885,7.324,13.672,190.430,41.016,57.129
1641937032.889,-10.742,1.953,61.035,21.484,43.945
1641937032.890,9.766,2.930,95.703,35.645,63.965
1641937032.894,21.973,2.930,192.383,51.270,64.453
1641937032.898,-0.488,8.301,191.895,46.875,49.805
1641937032.902,-13.184,15.137,156.250,27.832,25.391
1641937032.906,9.277,8.301,126.953,19.043,24.902
1641937032.910,29.785,-1.953,77.637,39.551,50.293
1641937032.914,31.250,2.441,162.109,55.176,51.270
1641937032.917,17.578,-8.789,-1.465,36.621,32.715
1641937032.921,20.996,-10.254,-143.066,15.137,31.738
1641937032.925,38.086,9.766,103.027,21.484,30.762
1641937032.929,33.203,13.672,154.297,36.133,85.449
1641937032.933,14.648,5.859,72.754,12.695,85.449
1641937032.936,18.066,2.930,116.699,-3.906,46.387
1641937032.940,36.133,6.836,266.113,4.883,62.988
1641937032.944,40.039,5.371,226.562,16.602,75.195
1641937032.948,21.973,1.953,182.129,18.066,88.867
1641937032.952,18.066,6.348,186.035,-0.977,61.035
1641937032.956,35.156,9.277,98.145,4.883,22.461
1641937032.960,40.039,3.906,-41.504,22.461,37.598
1641937032.963,20.996,7.324,-197.754,21.484,43.457
1641937032.967,9.277,22.461,1.953,15.625,50.781
1641937032.971,22.949,20.020,225.098,5.859,60.547
1641937032.975,34.668,14.160,153.809,20.508,42.480
1641937032.979,18.066,13.672,130.371,20.996,57.129
1641937032.981,-5.859,19.043,98.145,-4.883,24.414
1641937032.985,6.836,23.926,176.270,-5.371,5.371
1641937032.989,17.090,6.348,73.730,3.418,-18.066
1641937032.993,9.277,5.371,-2.930,5.371,-33.203
1641937032.997,-1.465,14.160,176.270,-4.395,18.555
1641937033.001,-5.859,3.418,63.965,-15.137,7.324
1641937033.005,11.230,-5.859,-215.820,-2.930,-13.672
1641937033.008,26.855,-0.488,-190.430,10.254,-0.977
1641937033.012,27.832,4.395,182.129,12.207,20.508
1641937033.016,23.926,2.441,220.215,-6.836,32.227
1641937033.020,47.852,3.418,89.355,-9.766,28.320
1641937033.024,67.383,6.348,121.582,18.555,17.090
1641937033.025,43.945,11.230,223.633,20.020,40.527
1641937033.029,23.926,8.301,145.020,6.348,18.555
1641937033.033,47.363,12.695,81.543,5.859,15.137
1641937033.037,66.406,10.742,60.547,14.648,-1.465
1641937033.041,52.734,5.371,121.582,28.320,1.953
1641937033.045,30.273,-4.395,59.082,18.066,-4.395
1641937033.049,31.250,-10.742,-337.891,11.719,-62.500
1641937033.052,56.641,7.812,-223.145,28.320,-23.926
1641937033.056,62.012,13.672,213.379,44.434,19.043
1641937033.060,32.715,8.301,109.375,31.738,8.789
1641937033.064,26.367,9.277,-2.441,11.719,-3.906
1641937033.068,52.734,4.395,152.832,20.996,24.414
1641937033.085,55.176,1.953,164.551,31.250,52.246
1641937033.089,24.902,8.789,57.129,25.879,20.508
1641937033.093,4.395,10.254,41.504,11.230,29.297
1641937033.097,9.766,10.742,118.164,20.508,42.480
1641937033.101,16.113,11.230,232.422,46.387,72.266
1641937033.105,4.395,4.395,49.805,34.668,35.156
1641937033.109,-10.254,3.418,-163.574,6.836,-5.371
1641937033.112,-2.930,7.812,-55.176,5.859,2.441
1641937033.116,20.996,14.160,119.141,27.832,27.832
1641937033.120,25.391,20.020,132.324,38.086,58.105
1641937033.124,13.184,26.855,73.730,20.508,57.129
1641937033.128,25.391,26.855,117.188,17.090,80.078
1641937033.131,47.363,18.555,150.879,38.574,57.129
1641937033.135,41.504,8.789,-187.500,50.781,11.230
1641937033.139,27.832,14.160,-320.312,38.086,-12.695
1641937033.143,12.207,17.578,18.066,16.113,-13.184
1641937033.147,24.902,9.766,-13.672,25.879,20.508
1641937033.151,44.922,10.254,-166.992,54.199,30.273
1641937033.155,23.438,20.508,-144.043,45.898,19.043
1641937033.158,0.000,33.691,47.852,20.020,28.809
1641937033.162,1.465,32.715,25.391,-0.977,-3.418
1641937033.166,-1.953,28.320,-251.953,-8.789,3.906
1641937033.170,-6.348,44.434,93.262,0.000,27.344
1641937033.174,-14.648,47.363,533.203,-25.391,18.555
1641937033.175,-6.836,54.199,504.883,-31.250,19.531
1641937033.179,19.043,57.617,631.836,5.859,39.551
1641937033.183,6.348,42.480,772.949,-1.465,28.320
1641937033.187,-4.883,52.734,698.242,-11.719,41.504
1641937033.191,18.555,67.871,579.102,6.348,82.031
1641937033.195,28.320,73.730,579.590,26.855,26.855
1641937033.199,15.137,88.867,686.035,50.781,-46.875
1641937033.202,-3.418,105.469,871.582,54.688,-6.348
1641937033.206,-9.766,101.562,780.273,35.645,21.484
1641937033.210,14.648,98.145,757.812,39.062,53.711
1641937033.214,56.152,109.375,-976.074,58.105,107.910
1641937033.218,42.969,111.328,990.234,46.387,79.102
1641937033.220,-3.906,110.352,945.801,20.996,41.992
1641937033.224,0.977,111.816,979.980,16.113,63.965
1641937033.228,9.766,112.305,-986.816,25.879,71.289
1641937033.232,-31.250,107.910,952.637,-1.465,52.246
1641937033.236,-66.895,110.352,736.328,-44.922,43.945
1641937033.240,-82.520,117.676,501.465,-63.965,48.340
1641937033.244,-91.309,113.281,231.445,-77.148,65.430
1641937033.247,-103.027,98.633,-48.828,-92.773,41.504
1641937033.251,-150.391,84.961,-321.289,-132.324,49.316
1641937033.255,-170.898,83.008,-303.223,-162.598,99.609
1641937033.259,-157.227,77.148,-264.648,-145.020,79.102
1641937033.263,-172.852,66.406,-500.000,-129.883,46.875
1641937033.266,-199.219,59.570,-584.961,-132.812,88.867
1641937033.270,-199.219,62.500,-626.465,-147.461,95.703
1641937033.274,-179.688,54.688,-840.332,-147.949,13.184
1641937033.278,-163.574,41.016,-951.172,-132.324,-3.418
1641937033.282,-152.344,37.109,-891.602,-131.348,-21.484
1641937033.286,-137.207,23.926,-900.391,-134.766,-18.555
1641937033.290,-106.445,21.484,-961.914,-134.766,40.039
1641937033.293,-71.777,8.789,-964.355,-113.770,38.086
1641937033.297,-51.270,4.883,-911.133,-85.449,44.922
1641937033.301,-49.805,15.137,-696.777,-83.496,73.242
1641937033.305,-42.969,-0.977,-630.859,-83.496,50.781
1641937033.309,-7.812,-9.277,-673.828,-63.965,27.832
1641937033.325,11.230,-14.648,-618.164,-42.969,14.160
1641937033.329,1.465,-14.648,-588.867,-37.109,29.297
1641937033.333,0.000,-16.113,-611.816,-33.691,37.598
1641937033.337,31.738,-12.207,-567.383,-6.348,28.320
1641937033.341,57.129,-3.906,-407.227,18.555,63.965
1641937033.345,44.434,-5.371,-438.477,23.926,76.172
1641937033.349,34.668,-10.742,-571.777,18.555,51.758
1641937033.352,49.805,-21.973,-833.008,25.879,30.762
1641937033.356,72.754,-17.578,-671.875,55.664,1.953
1641937033.360,62.988,-20.020,-203.613,65.430,40.527
1641937033.364,41.504,-27.832,-189.453,50.781,45.410
1641937033.368,56.641,-22.949,-194.824,51.758,31.250
1641937033.355,79.102,-20.996,-99.121,68.848,39.551
1641937033.359,72.754,-26.367,-41.992,74.707,-1.465
1641937033.363,53.711,-30.762,-65.430,63.477,14.160
1641937033.367,61.523,-28.320,-13.184,54.688,27.344
1641937033.371,87.402,-37.598,-51.270,64.941,4.395
1641937033.375,83.984,-45.410,-275.391,85.449,17.578
1641937033.379,62.012,-35.645,-268.066,80.566,59.082
1641937033.382,66.406,-35.156,-209.961,67.871,61.035
1641937033.386,93.750,-37.109,-185.059,85.449,27.344
1641937033.390,111.328,-31.250,1.953,111.328,8.789
1641937033.394,92.773,-36.621,-238.281,114.258,-34.668
1641937033.398,80.566,-23.926,-388.184,93.262,-21.484
1641937033.401,100.586,-17.090,-18.555,84.473,22.949
1641937033.405,111.816,-31.738,62.500,99.121,1.465
1641937033.409,98.145,-31.250,27.344,104.492,-1.465
1641937033.413,84.961,-22.461,97.168,85.449,-9.766
1641937033.417,99.121,-18.555,160.645,82.520,-14.648
1641937033.421,112.305,-23.438,29.297,101.074,-28.320
1641937033.425,93.262,-20.508,-203.613,103.516,-22.461
1641937033.428,77.637,-9.766,-9.277,89.355,59.570
1641937033.432,83.984,-5.859,171.387,80.078,56.152
1641937033.436,103.516,-8.301,66.406,92.773,13.672
1641937033.440,108.887,-11.719,19.531,104.980,40.039
1641937033.444,87.891,-11.230,27.832,95.703,23.926
1641937033.446,88.867,-11.719,88.867,78.613,29.785
1641937033.450,103.027,-14.160,-11.230,89.844,35.645
1641937033.454,97.168,-14.160,-14.648,104.980,19.043
1641937033.458,81.543,-11.230,168.457,95.703,48.340
1641937033.462,62.988,-18.555,178.223,82.031,64.453
1641937033.466,60.059,-21.484,0.977,78.125,23.926
1641937033.470,80.566,-12.207,-42.969,94.727,20.996
1641937033.473,74.707,-1.465,146.973,91.309,38.086
1641937033.477,50.781,8.789,206.543,64.941,24.414
1641937033.481,52.246,10.254,-29.785,64.453,0.488
1641937033.485,69.824,12.695,-71.289,77.148,16.602
1641937033.489,63.477,10.742,175.781,82.031,23.926
1641937033.505,36.621,2.930,161.133,61.523,12.695
1641937033.509,30.273,7.324,12.207,50.293,-20.020
1641937033.513,58.594,20.020,45.410,74.219,-17.578
1641937033.517,77.637,22.949,236.328,88.379,35.156
1641937033.521,54.688,19.043,208.496,72.754,-2.441
1641937033.525,34.668,21.484,-199.219,43.457,-25.391
1641937033.529,55.176,37.598,-182.617,45.410,-7.324
1641937033.532,80.078,42.969,262.695,73.730,-9.766
1641937033.536,62.500,32.715,223.633,72.266,14.160
1641937033.540,48.340,34.180,93.750,57.617,10.742
1641937033.544,67.871,38.574,242.676,51.758,70.312
1641937033.548,86.914,35.156,280.273,62.500,93.750
1641937033.551,77.637,37.109,159.180,82.031,53.223
1641937033.555,48.828,35.156,112.305,65.918,47.363
1641937033.559,45.898,24.902,219.238,53.711,48.828
1641937033.563,67.383,16.113,250.000,64.453,22.461
1641937033.567,55.664,16.113,58.105,64.453,-40.527
1641937033.571,20.996,20.020,-72.754,56.152,-39.551
1641937033.575,16.602,15.137,-95.215,42.480,-33.691
1641937033.578,40.527,17.578,36.133,42.969,-8.301
1641937033.582,30.762,18.555,-96.680,51.758,13.672
1641937033.586,9.277,20.996,-292.480,49.805,-48.340
1641937033.590,14.648,36.133,19.043,39.551,-7.812
1641937033.594,33.691,34.180,139.160,48.340,94.727
1641937033.595,52.246,29.785,120.605,69.336,101.074
1641937033.599,43.457,25.391,153.320,61.035,60.059
1641937033.603,25.391,18.555,220.703,45.898,96.680
1641937033.607,28.320,15.137,168.945,41.016,108.398
1641937033.611,47.363,11.719,65.918,56.152,36.133
1641937033.615,45.898,11.719,35.645,69.824,35.156
1641937033.619,21.973,13.184,-12.695,47.852,46.875
1641937033.622,20.020,13.184,-32.227,36.621,22.949
1641937033.626,38.574,9.277,-313.477,46.875,-23.438
1641937033.630,42.969,20.508,-253.418,52.734,-30.762
1641937033.634,20.020,30.273,153.320,43.457,33.203
1641937033.638,8.301,31.738,110.352,18.066,39.551
1641937033.640,36.133,36.621,75.195,28.320,23.438
1641937033.644,55.176,39.062,232.422,49.805,41.504
1641937033.648,38.086,38.086,251.465,40.039,47.852
1641937033.652,23.926,40.527,138.672,22.949,36.133
1641937033.656,41.016,44.922,106.445,23.438,35.156
1641937033.660,58.594,40.039,42.969,48.340,20.996
1641937033.664,45.410,35.156,75.684,61.523,21.973
1641937033.667,18.066,22.461,-12.695,46.387,5.371
1641937033.671,32.227,30.762,-9.766,41.992,-10.254
1641937033.675,48.340,34.668,198.242,55.664,31.738
1641937033.679,28.809,20.020,162.598,62.012,76.172
1641937033.683,6.836,17.578,-30.762,53.711,82.031
1641937033.686,3.418,19.043,-111.328,38.086,68.359
1641937033.690,26.855,20.996,232.910,46.875,108.887
1641937033.694,27.832,18.555,261.230,60.547,97.168
1641937033.698,-0.977,25.879,155.273,48.828,41.504
1641937033.702,-9.277,25.391,210.449,33.691,29.297
1641937033.706,5.859,19.531,145.508,30.762,16.113
1641937033.710,12.695,20.020,77.637,42.969,-3.906
1641937033.713,6.348,25.879,-59.082,37.109,-1.953
1641937033.717,10.254,38.574,55.664,20.020,22.949
1641937033.721,18.066,40.039,260.254,20.020,5.371
1641937033.725,21.484,39.551,144.531,35.156,2.930
1641937033.729,20.508,37.598,167.969,45.898,33.203
1641937033.731,12.695,33.203,139.648,24.414,19.043
1641937033.735,20.996,35.645,178.223,12.207,28.320
1641937033.739,34.668,28.809,147.949,27.832,26.367
1641937033.743,26.367,31.738,56.152,35.156,23.926
1641937033.747,2.441,33.691,246.582,12.207,65.918
1641937033.751,-3.418,31.738,231.445,7.324,66.406
1641937033.755,25.391,34.668,-28.809,40.527,0.977
1641937033.758,41.016,37.598,-56.641,57.617,-2.441
1641937033.762,20.508,44.434,282.227,48.828,19.531
1641937033.766,11.230,41.016,342.773,27.832,-25.391
1641937033.770,34.668,30.273,261.230,35.156,-13.672
1641937033.774,41.016,29.297,333.008,64.941,33.203
1641937033.790,19.043,33.203,466.797,61.523,20.996
1641937033.794,-1.465,27.832,435.547,32.227,40.039
1641937033.798,1.465,27.832,316.895,20.996,76.660
1641937033.802,26.367,31.250,311.035,43.457,42.969
1641937033.806,28.809,31.250,381.348,46.875,-2.930
1641937033.810,5.859,30.273,250.488,16.113,-29.297
1641937033.814,14.160,27.344,-125.488,14.648,-20.508
1641937033.817,48.828,38.574,-8.789,28.809,21.973
1641937033.821,44.434,44.434,383.789,28.320,43.945
1641937033.825,17.578,38.574,340.332,20.020,14.160
1641937033.829,13.184,33.691,307.617,-1.953,-1.953
1641937033.833,44.434,44.922,372.559,10.742,-34.180
1641937033.835,63.477,51.758,439.941,39.062,-27.832
1641937033.839,42.480,52.246,375.488,40.039,-13.184
1641937033.843,30.273,55.664,328.125,28.809,0.000
1641937033.847,48.828,53.223,462.402,28.320,53.223
1641937033.851,60.059,45.898,477.051,53.223,34.180
1641937033.855,33.691,43.457,370.117,51.270,23.926
1641937033.859,9.766,50.293,294.922,28.320,19.043
1641937033.862,26.855,56.641,319.336,31.738,-40.527
1641937033.866,44.922,58.594,534.180,46.387,-9.277
1641937033.870,24.414,43.945,356.934,48.828,29.297
1641937033.874,0.000,40.039,73.242,13.672,3.906
1641937033.878,20.508,50.781,352.051,4.395,21.973
1641937033.880,50.781,47.852,575.195,29.785,50.293
1641937033.884,49.316,41.016,523.438,28.320,37.109
1641937033.888,29.297,32.715,507.324,8.301,1.465
1641937033.892,26.855,24.902,538.086,-14.160,42.969
1641937033.896,49.805,24.902,452.637,-2.930,42.969
1641937033.900,63.477,25.391,367.676,25.879,14.160
1641937033.904,54.199,23.926,346.191,22.949,0.977
1641937033.907,40.039,28.320,452.148,4.883,-17.578
1641937033.911,42.969,9.277,401.855,2.930,23.926
1641937033.915,51.270,1.953,-42.480,25.879,42.969
1641937033.919,51.758,30.273,89.844,41.992,19.043
1641937033.923,35.645,26.367,436.523,27.344,4.395
1641937033.925,29.785,12.207,308.105,23.438,2.930
1641937033.929,40.039,13.672,257.324,35.645,14.648
1641937033.933,32.227,11.719,318.848,32.715,5.859
1641937033.937,10.742,9.766,329.102,19.043,11.719
1641937033.941,8.789,6.348,254.883,9.277,11.230
1641937033.945,30.273,4.395,92.285,20.508,-17.090
1641937033.949,28.809,10.742,25.879,33.203,-8.301
1641937033.952,13.672,24.902,144.043,27.344,-35.645
1641937033.956,11.230,18.555,-74.219,9.277,-78.125
1641937033.960,31.250,22.461,-172.363,11.719,-38.086
1641937033.964,52.734,37.598,224.609,24.902,26.367
1641937033.968,36.133,22.461,181.641,21.484,36.621
1641937033.971,17.578,16.113,-6.836,0.000,29.297
1641937033.975,41.992,19.531,84.473,0.977,-5.371
1641937033.979,62.012,19.531,283.203,22.949,18.066
1641937033.983,42.480,10.254,241.699,20.020,28.809
1641937033.987,23.438,2.930,142.090,4.883,37.109
1641937033.991,26.855,5.859,7.812,6.348,25.391
1641937033.995,48.340,17.578,21.484,27.832,-12.695
1641937033.998,41.504,20.996,135.254,38.574,8.789
1641937034.002,9.766,17.578,-97.656,22.461,12.207
1641937034.006,15.137,28.809,42.480,10.742,12.695
1641937034.010,32.227,22.949,263.672,24.414,39.551
1641937034.014,32.227,13.672,156.250,45.898,44.434
1641937034.015,14.648,14.160,194.824,46.875,65.918
1641937034.019,10.254,10.254,302.246,24.902,62.012
1641937034.023,21.973,2.441,206.055,28.809,40.039
1641937034.027,28.809,4.883,111.328,62.012,48.828
1641937034.031,23.926,13.184,211.914,66.895,29.785
1641937034.035,1.465,9.766,120.117,45.898,2.930
1641937034.039,15.625,7.812,120.605,39.551,6.836
1641937034.042,32.715,-7.324,48.340,56.152,-2.441
1641937034.046,9.766,-4.883,-143.066,69.824,-6.348
1641937034.050,-9.766,19.043,169.434,54.199,40.527
1641937034.054,-21.973,13.184,301.270,36.621,45.898
1641937034.058,-15.137,4.883,199.219,33.203,25.391
1641937034.090,-7.324,6.348,237.793,42.969,24.414
1641937034.094,-15.137,1.953,263.672,41.016,7.324
1641937034.098,-11.230,0.000,192.383,20.996,5.371
1641937034.102,10.742,-0.488,208.984,31.250,8.301
1641937034.106,19.043,10.254,330.078,40.527,-1.465
1641937034.110,-1.953,20.020,266.113,31.738,-5.859
1641937034.114,-16.602,12.207,130.371,23.438,1.465
1641937034.117,5.859,10.254,-102.539,30.762,15.625
1641937034.121,27.344,31.250,-21.484,47.363,31.250
1641937034.125,18.066,40.039,387.207,47.363,43.457
1641937034.129,2.441,27.344,328.125,31.250,4.395
1641937034.133,13.184,24.902,229.492,30.273,-0.488
1641937034.105,35.645,29.297,323.730,51.270,0.977
1641937034.109,32.227,34.668,339.355,70.312,-6.348
1641937034.113,20.508,37.598,181.641,56.152,21.484
1641937034.117,23.438,40.039,100.098,42.480,37.598
1641937034.121,19.531,44.922,207.031,50.781,61.523
1641937034.125,12.695,39.062,80.566,57.129,41.504
1641937034.129,-5.371,31.250,7.812,37.109,43.457
1641937034.132,-16.602,34.180,134.277,3.418,78.125
1641937034.136,0.977,39.062,81.055,8.301,20.996
1641937034.140,15.137,41.016,149.414,26.855,-0.977
1641937034.144,6.836,42.480,137.695,21.484,-9.766
1641937034.148,4.883,54.199,81.055,3.418,-36.133
1641937034.151,28.809,57.617,208.984,2.930,-5.371
1641937034.155,51.758,44.434,278.320,21.973,-0.488
1641937034.159,33.691,30.273,-86.426,30.273,-55.176
1641937034.163,18.555,43.945,-207.520,20.996,-20.020
1641937034.167,35.645,54.688,212.402,22.461,73.242
1641937034.171,52.734,46.387,151.367,38.574,47.363
1641937034.175,42.969,44.434,-127.441,44.434,41.992
1641937034.178,25.391,51.758,54.199,24.902,49.805
1641937034.182,35.156,41.504,294.922,22.461,12.207
1641937034.186,50.781,21.973,230.957,43.945,-29.297
1641937034.190,51.270,20.996,166.992,60.547,-45.898
1641937034.194,33.691,37.598,194.824,52.246,-45.410
1641937034.196,27.832,41.992,312.500,37.109,-46.875
1641937034.200,32.227,29.785,198.242,40.527,-9.277
1641937034.204,37.109,29.297,125.977,47.363,10.742
1641937034.208,25.879,40.527,332.031,41.016,38.574
1641937034.212,11.230,37.598,313.477,18.066,27.344
1641937034.216,31.738,26.855,45.410,19.043,19.043
1641937034.220,49.805,30.762,-20.020,38.574,46.875
1641937034.223,41.504,41.016,221.680,41.016,62.988
1641937034.227,23.438,34.180,270.508,16.602,31.250
1641937034.231,16.113,16.602,-54.199,2.930,-13.184
1641937034.235,36.621,14.648,-18.555,22.461,49.805
1641937034.239,30.762,9.766,290.039,30.273,76.660
1641937034.255,5.371,0.488,279.297,14.160,58.105
1641937034.259,14.648,4.395,139.160,8.789,81.055
1641937034.263,34.180,17.090,104.980,13.672,70.801
1641937034.267,44.434,29.785,244.141,25.391,6.836
1641937034.271,27.832,24.902,288.086,26.855,25.879
1641937034.275,9.277,14.160,-137.207,2.930,25.391
1641937034.279,35.645,40.527,-113.770,7.324,6.836
1641937034.282,56.641,48.340,338.867,34.180,57.129
1641937034.286,37.109,30.273,215.332,34.180,45.410
1641937034.290,30.273,38.574,104.492,17.578,-9.277
1641937034.294,53.711,44.434,269.043,19.531,1.465
1641937034.298,68.359,35.156,330.566,34.180,34.668
1641937034.301,46.387,25.879,328.125,33.691,65.918
1641937034.305,20.020,23.438,356.934,13.672,73.730
1641937034.309,31.738,36.133,355.469,10.742,20.020
1641937034.313,55.176,42.480,350.586,21.484,-3.418
1641937034.317,57.617,43.945,228.027,31.250,-14.160
1641937034.321,36.133,50.293,126.953,32.227,36.133
1641937034.325,20.996,54.199,201.660,8.301,42.480
1641937034.328,35.645,54.199,357.422,12.207,15.625
1641937034.332,38.574,38.574,128.418,26.367,-20.508
1641937034.336,17.090,43.457,-42.969,13.184,-21.484
1641937034.340,13.672,62.012,252.441,0.977,-11.230
1641937034.344,25.391,50.293,260.254,5.859,-55.176
1641937034.345,31.250,42.969,250.977,35.156,-8.789
1641937034.349,20.508,43.457,343.750,35.156,17.578
1641937034.353,7.324,38.574,302.734,8.301,-24.414
1641937034.357,16.113,26.855,205.078,16.113,-15.625
1641937034.361,34.180,19.043,170.410,35.645,-1.465
1641937034.365,23.438,26.367,164.062,44.434,47.363
1641937034.369,-0.977,30.762,158.203,27.832,73.242
1641937034.372,6.836,26.367,132.324,20.020,47.852
1641937034.376,24.414,23.438,-237.793,37.109,-46.875
1641937034.380,29.297,42.969,-140.137,47.852,-58.594
1641937034.384,13.184,47.363,339.355,38.574,11.230
1641937034.388,2.930,27.344,248.535,17.090,-2.441
1641937034.390,30.762,13.672,185.547,25.879,-0.977
1641937034.394,54.688,16.113,336.914,55.176,14.648
1641937034.398,35.645,14.648,367.188,51.758,39.062
1641937034.402,16.602,15.137,229.980,27.832,34.668
1641937034.406,33.203,25.391,221.191,24.414,35.645
1641937034.410,44.922,18.066,216.309,49.316,71.289
1641937034.414,31.738,17.090,117.188,54.688,77.637
1641937034.417,8.789,17.090,-133.301,28.320,38.574
1641937034.421,27.832,16.602,-180.176,23.438,36.621
1641937034.425,58.594,19.531,110.840,38.086,53.711
1641937034.429,41.504,19.531,107.422,47.363,3.906
1641937034.433,15.137,24.414,19.531,32.715,-4.395
1641937034.436,22.949,24.902,12.207,18.066,-20.508
1641937034.440,44.434,27.344,190.918,36.621,20.020
1641937034.444,39.551,18.555,203.613,48.340,52.734
1641937034.448,15.625,18.555,106.934,33.691,38.086
1641937034.452,14.160,32.227,141.602,17.578,25.391
1641937034.456,46.387,25.879,65.430,25.391,9.277
1641937034.460,61.035,22.461,-53.223,38.574,27.832
1641937034.463,34.180,35.156,-201.660,28.320,25.879
1641937034.467,24.902,50.781,39.062,19.531,60.547
1641937034.471,48.828,45.898,300.293,15.625,70.801
1641937034.475,56.641,35.156,125.488,23.438,33.691
1641937034.479,33.203,35.156,82.031,29.785,43.945
1641937034.481,16.113,44.434,71.777,14.648,27.832
1641937034.485,25.879,42.969,63.477,19.531,39.062
1641937034.489,38.086,34.180,57.129,48.828,42.969
1641937034.493,31.738,40.039,34.180,63.965,8.301
1641937034.497,19.043,46.875,180.176,51.758,17.090
1641937034.501,13.672,33.691,122.559,41.992,19.043
1641937034.505,20.020,20.508,-144.043,52.246,37.598
1641937034.508,33.691,39.062,-189.453,72.266,34.668
1641937034.512,27.832,53.711,134.277,72.266,0.000
1641937034.516,10.742,41.992,183.594,51.270,14.648
1641937034.520,22.949,39.062,126.953,48.340,31.738
1641937034.524,37.598,45.410,155.273,57.617,4.395
1641937034.525,24.902,41.016,267.578,52.246,25.879
1641937034.529,24.414,29.297,274.414,39.551,35.645
1641937034.533,33.691,23.438,169.434,34.668,29.297
1641937034.537,28.320,35.156,150.391,30.762,67.871
1641937034.541,13.672,47.363,247.559,33.203,102.539
1641937034.545,2.930,43.457,156.738,29.297,85.449
1641937034.549,9.277,42.969,-304.199,23.926,11.230
1641937034.552,23.438,58.105,-255.371,25.879,-13.184
1641937034.556,33.203,63.965,211.426,31.250,66.895
1641937034.560,14.160,44.434,216.309,15.137,100.586
1641937034.564,-0.488,30.762,133.301,-13.672,48.828
1641937034.568,2.930,39.062,233.398,-10.742,38.574
1641937034.585,7.324,37.598,348.145,-0.977,51.758
1641937034.589,-1.465,34.180,243.164,-5.859,16.602
1641937034.593,-5.371,35.645,149.902,-12.207,9.277
1641937034.597,18.555,30.273,230.469,-5.371,-0.977
1641937034.601,41.992,21.973,242.188,18.555,-9.277
1641937034.605,34.180,21.973,34.180,20.020,6.348
1641937034.609,15.137,32.227,-79.102,7.324,37.598
1641937034.612,33.203,36.621,-26.367,16.602,14.160
1641937034.616,62.500,38.574,187.012,41.992,16.113
1641937034.620,46.875,23.438,-6.348,55.176,27.832
1641937034.624,10.742,25.879,-202.637,25.391,56.641
1641937034.628,16.602,35.645,130.371,2.930,87.891
1641937034.630,34.180,27.344,135.742,22.949,44.922
1641937034.634,26.855,32.227,97.168,32.227,43.945
1641937034.638,9.277,39.062,140.137,15.137,27.344
1641937034.642,12.695,40.039,175.293,-0.488,29.297
1641937034.646,27.344,34.180,137.207,0.488,42.969
1641937034.650,28.320,43.945,52.246,14.160,52.246
1641937034.654,13.184,53.711,28.809,5.371,53.711
1641937034.657,11.230,54.688,136.719,-10.742,70.312
1641937034.661,25.391,47.852,113.281,-11.719,67.383
1641937034.665,30.762,38.574,-322.754,7.812,10.254
1641937034.669,16.602,49.805,-198.242,23.926,3.906
1641937034.673,3.906,56.641,233.398,14.648,44.434
1641937034.675,15.625,55.664,99.609,17.090,31.738
1641937034.679,29.785,54.199,60.059,32.227,64.453
1641937034.683,24.414,49.805,229.492,42.969,85.938
1641937034.687,-4.395,51.270,242.188,36.621,52.734
1641937034.691,-10.742,49.805,112.305,33.203,19.043
1641937034.695,15.137,44.434,41.016,44.434,11.230
1641937034.699,16.113,52.246,17.090,45.410,10.254
1641937034.702,2.441,64.453,166.504,39.551,26.367
1641937034.706,0.977,55.664,13.184,23.438,26.367
1641937034.710,20.996,46.387,-212.891,15.137,-33.691
1641937034.714,38.086,44.922,139.648,29.297,35.156
1641937034.718,23.438,38.086,128.906,18.555,71.289
1641937034.720,13.672,44.922,-83.008,-3.418,3.906
1641937034.724,43.457,53.711,17.578,0.488,1.465
1641937034.728,69.336,47.363,211.426,20.508,62.012
1641937034.732,46.875,35.645,139.160,26.367,61.035
1641937034.736,13.184,34.668,-13.672,-1.465,37.109
1641937034.740,26.367,45.898,-71.777,-6.836,45.898
1641937034.744,60.547,55.176,-45.410,27.832,66.895
1641937034.747,48.340,50.293,-12.207,36.621,36.621
1641937034.751,18.066,50.781,-233.398,21.973,1.465
1641937034.755,29.785,61.523,-138.672,15.625,6.348
1641937034.759,59.082,56.152,125.488,33.203,28.320
1641937034.763,45.410,43.945,40.039,42.969,25.879
1641937034.765,10.254,45.898,-9.766,27.832,41.016
1641937034.769,12.207,49.805,133.789,15.137,100.586
1641937034.773,37.598,41.016,60.059,19.043,79.102
1641937034.777,47.852,43.457,-211.426,42.480,13.184
1641937034.781,35.645,51.270,-151.855,52.734,14.160
1641937034.785,25.391,43.457,-49.805,40.039,30.273
1641937034.789,47.363,47.363,4.395,40.039,29.297
1641937034.792,58.594,41.504,-130.859,47.852,3.418
1641937034.796,41.016,39.551,-279.297,55.664,-12.695
1641937034.800,35.156,53.223,87.891,51.758,21.973
1641937034.804,45.898,43.945,180.664,41.992,7.324
1641937034.808,63.965,47.363,86.426,51.270,4.395
1641937034.810,58.105,53.711,161.133,56.641,25.391
1641937034.814,29.297,47.363,212.402,42.969,62.988
1641937034.818,25.391,40.527,94.238,29.297,62.500
1641937034.822,46.387,39.551,19.531,41.016,28.320
1641937034.826,43.457,44.434,118.652,52.734,37.109
1641937034.830,8.301,42.969,12.207,39.551,24.902
1641937034.834,-8.301,47.852,-78.613,29.785,64.941
1641937034.837,3.418,47.363,-339.355,28.320,35.156
1641937034.841,24.902,58.105,-305.176,44.922,26.855
1641937034.845,32.227,66.406,177.246,44.434,90.332
1641937034.849,16.602,59.082,74.707,25.391,28.320
1641937034.853,14.160,63.965,4.395,40.527,41.504
1641937034.855,32.715,64.941,167.480,70.801,64.453
1641937034.859,22.949,59.570,192.383,74.707,27.832
1641937034.863,-27.832,50.781,78.613,29.297,46.875
1641937034.867,-40.527,56.152,36.133,-6.836,47.852
1641937034.871,-1.953,69.336,88.379,2.930,14.160
1641937034.875,6.836,75.195,95.703,20.020,-5.859
1641937034.879,-25.391,69.336,-49.316,6.836,-13.672
1641937034.882,-11.719,74.707,-151.855,-18.555,-10.742
1641937034.886,16.113,82.520,126.465,-11.230,13.184
1641937034.890,-0.977,73.242,324.707,0.488,28.320
1641937034.894,-12.207,71.289,247.070,-9.766,12.695
1641937034.898,-8.789,71.777,259.766,-20.996,38.574
1641937034.901,10.254,77.148,391.602,-18.555,74.219
1641937034.905,23.438,86.426,376.465,6.836,31.250
1641937034.909,-2.441,100.098,320.312,7.812,22.461
1641937034.913,-23.438,113.770,301.758,-14.160,48.828
1641937034.917,-12.207,112.793,262.695,-15.625,49.316
1641937034.921,6.348,111.816,103.516,5.371,82.031
1641937034.925,-13.184,115.723,-93.262,13.184,63.477
1641937034.928,-33.203,133.789,77.637,3.418,38.574
1641937034.932,-24.414,143.066,335.938,0.000,52.734
1641937034.936,-18.555,137.695,223.633,6.836,48.340
1641937034.940,-28.320,136.719,190.918,7.812,53.223
1641937034.944,-50.293,133.301,261.230,-5.859,46.875
1641937034.946,-60.059,138.184,245.117,-27.344,24.414
1641937034.950,-44.434,141.113,44.922,-32.715,10.742
1641937034.954,-31.738,138.672,-122.559,-25.391,8.789
1641937034.958,-49.316,132.812,-33.203,-45.410,10.254
1641937034.962,-63.965,125.488,-49.316,-67.871,43.457
1641937034.966,-57.129,110.840,-422.852,-73.242,41.504
1641937034.970,-46.387,108.887,-603.516,-64.453,34.180
1641937034.973,-52.246,109.375,-382.324,-60.059,28.809
1641937034.977,-69.336,89.844,-450.195,-76.172,12.207
1641937034.981,-59.082,83.496,-654.785,-76.660,26.367
1641937034.985,-32.227,79.102,-647.461,-55.664,32.715
1641937034.989,-29.785,57.617,-552.246,-46.387,-1.953
1641937035.006,-43.457,49.316,-583.496,-55.176,41.992
1641937035.010,-46.875,45.898,-707.031,-68.848,105.957
1641937035.014,-26.367,46.875,-671.387,-51.270,69.336
1641937035.018,-21.973,43.457,-494.141,-24.414,25.879
1641937035.022,-55.664,30.762,-555.664,-31.738,34.668
1641937035.026,-64.453,26.367,-874.512,-45.410,36.133
1641937035.030,-28.320,29.297,-863.770,-42.969,8.301
1641937035.033,1.465,31.250,-473.633,-13.184,76.660
1641937035.037,-3.906,19.531,-531.738,0.000,58.105
1641937035.041,-9.277,13.184,-653.320,-12.207,-5.371
1641937035.045,14.160,18.066,-468.262,-8.301,30.273
1641937035.049,39.551,19.531,-405.762,10.254,21.484
1641937035.051,27.344,19.531,-460.449,23.926,26.367
1641937035.055,18.066,17.090,-455.078,12.695,95.215
1641937035.059,46.387,18.066,-383.301,8.789,84.473
1641937035.063,70.312,19.531,-292.480,36.133,11.230
1641937035.067,66.406,10.742,-349.121,55.176,25.879
1641937035.071,51.758,-1.465,-480.469,46.875,61.523
1641937035.075,55.176,-4.395,-482.422,37.109,13.184
1641937035.078,73.242,-0.977,-254.883,49.316,29.297
1641937035.082,62.500,-21.973,-379.883,61.035,19.531
1641937035.086,42.480,-12.695,-672.363,50.293,-7.812
1641937035.090,51.758,18.066,-329.590,44.922,41.992
1641937035.094,74.219,7.812,-150.879,54.199,27.344
1641937035.096,87.891,0.488,-233.887,77.148,0.488
1641937035.100,70.801,-3.906,-135.254,76.172,20.020
1641937035.104,49.805,-4.395,-50.293,52.734,43.457
1641937035.108,60.547,0.977,-79.102,59.570,63.965
1641937035.112,81.055,-9.277,-95.215,82.031,60.547
1641937035.116,65.430,-17.578,-191.406,79.102,39.062
1641937035.120,51.758,-8.301,-174.316,62.500,21.973
1641937035.123,68.359,-9.766,-95.703,62.012,39.551
1641937035.127,89.844,-22.949,-474.121,80.566,11.230
1641937035.131,98.145,-10.254,-346.191,91.309,2.930
1641937035.135,86.426,-0.488,112.793,83.008,51.270
1641937035.139,88.867,-0.977,-4.395,63.477,62.500
1641937035.140,114.746,7.324,0.977,69.824,39.062
1641937035.144,117.676,9.277,176.758,92.285,5.371
1641937035.148,98.145,7.324,206.543,90.332,35.156
1641937035.152,91.797,7.812,114.746,75.684,36.133
1641937035.156,104.492,12.207,77.148,65.430,-9.277
1641937035.160,117.188,21.973,63.477,84.961,-7.324
1641937035.164,103.516,26.367,39.551,91.309,-15.137
1641937035.167,78.125,14.160,-145.996,62.500,-16.602
1641937035.171,82.031,18.555,-215.820,59.570,2.441
1641937035.175,104.980,23.926,179.199,76.172,23.926
1641937035.179,92.285,5.859,148.438,83.496,-35.156
1641937035.183,61.035,8.301,-6.348,71.289,-63.477
1641937035.186,59.082,13.672,159.180,59.570,-6.836
1641937035.190,78.613,10.254,330.078,79.102,18.066
1641937035.194,70.312,10.742,280.273,88.379,18.555
1641937035.198,42.969,11.230,183.105,76.660,26.367
1641937035.202,41.504,20.508,236.816,66.406,20.996
1641937035.206,59.082,22.461,162.109,64.453,19.043
1641937035.210,62.012,17.090,45.410,80.566,18.066
1641937035.213,39.551,20.020,-77.148,74.219,23.438
1641937035.217,30.273,23.438,15.137,51.758,11.230
1641937035.221,44.922,17.578,253.906,55.664,27.832
1641937035.225,57.129,16.602,235.352,76.660,68.848
1641937035.229,47.852,25.391,218.262,79.102,38.086
1641937035.231,41.504,30.762,265.625,56.641,94.238
1641937035.235,64.941,33.691,158.691,51.758,105.957
1641937035.239,77.637,39.062,3.418,62.500,34.180
1641937035.243,63.965,41.992,57.129,60.059,69.824
1641937035.247,48.828,42.480,196.289,40.527,64.453
1641937035.251,54.688,43.457,36.133,31.738,41.992
1641937035.255,68.848,48.340,-191.895,46.387,27.832
1641937035.258,58.105,46.387,-264.648,59.082,0.488
1641937035.262,45.410,51.758,19.531,56.152,38.086
1641937035.266,39.062,45.410,179.199,48.828,81.543
1641937035.270,54.688,38.574,76.172,56.641,44.922
1641937035.274,68.359,44.922,102.051,79.590,31.250
1641937035.275,54.199,42.969,228.027,78.613,67.383
1641937035.279,34.180,25.391,197.754,54.688,67.871
1641937035.283,39.551,24.414,146.484,50.293,60.059
1641937035.287,58.594,36.621,174.316,69.824,70.312
1641937035.291,44.922,39.551,181.641,76.660,76.660
1641937035.295,18.066,35.156,112.305,59.082,58.105
1641937035.299,10.742,19.531,-266.113,35.645,45.410
1641937035.302,28.320,24.414,-217.773,42.480,68.848
1641937035.306,35.645,31.250,241.211,51.758,82.520
1641937035.310,17.090,26.367,195.801,39.062,64.453
1641937035.314,17.090,41.016,167.480,23.926,74.219
1641937035.318,46.875,54.199,283.203,33.203,96.191
1641937035.335,58.105,49.316,282.715,56.152,87.402
1641937035.339,37.598,39.062,188.965,53.711,65.430
1641937035.343,34.668,35.156,143.066,47.852,82.031
1641937035.347,55.664,35.156,180.176,49.316,83.496
1641937035.351,66.895,34.668,231.445,60.059,80.078
1641937035.355,44.434,26.855,14.160,54.688,70.312
1641937035.359,34.180,30.762,-157.227,29.785,35.645
1641937035.362,54.688,40.039,28.809,33.203,33.203
1641937035.366,66.895,31.738,214.355,56.641,38.086
1641937035.370,53.711,19.531,51.270,67.383,8.789
1641937035.374,37.598,24.902,-47.363,40.527,7.812
1641937035.378,49.316,35.645,271.484,22.461,33.203
1641937035.380,68.359,28.320,305.664,41.016,24.414
1641937035.384,62.988,26.367,215.820,49.805,42.480
1641937035.388,35.156,32.715,233.398,42.969,50.293
1641937035.392,27.832,33.203,290.527,26.855,37.598
1641937035.396,40.039,21.973,228.516,29.297,24.414
1641937035.400,34.668,13.184,57.617,42.480,-10.742
1641937035.404,15.137,19.531,35.645,28.809,-10.742
1641937035.407,2.930,26.855,213.867,8.789,51.758
1641937035.411,6.348,14.160,159.180,2.930,37.598
1641937035.415,15.137,4.883,-258.789,15.137,-20.508
1641937035.419,10.254,23.438,-158.691,18.555,25.879
1641937035.423,-0.488,23.438,203.125,-2.441,57.129
1641937035.426,7.812,15.625,81.055,-2.441,21.973
1641937035.430,18.066,20.508,84.473,9.277,32.715
1641937035.434,11.230,18.066,233.398,9.277,39.062
1641937035.438,0.000,19.043,228.516,9.277,22.461
1641937035.442,14.648,25.391,180.176,10.254,50.781
1641937035.446,41.504,30.273,99.121,29.785,94.238
1641937035.450,41.504,34.180,51.758,41.992,106.445
1641937035.453,19.531,33.691,186.523,34.668,99.609
1641937035.457,4.395,21.973,33.203,27.344,52.246
1641937035.461,15.137,26.367,-140.625,29.297,21.484
1641937035.465,29.297,35.156,209.961,49.805,41.016
1641937035.469,13.184,35.156,290.039,48.340,39.551
1641937035.470,-3.418,38.086,198.242,32.715,41.504
1641937035.474,12.695,40.527,254.883,37.109,69.824
1641937035.478,37.598,41.016,327.148,61.035,106.934
1641937035.482,15.625,31.738,315.430,65.430,98.145
1641937035.486,-12.207,28.320,170.410,22.949,73.730
1641937035.490,13.672,33.691,97.168,13.184,80.566
1641937035.494,37.598,43.457,176.270,37.598,80.078
1641937035.497,30.273,32.715,179.688,36.133,74.707
1641937035.501,11.230,20.508,-137.207,11.230,64.941
1641937035.505,27.344,37.109,-37.109,-1.953,71.777
1641937035.509,64.453,35.156,243.652,14.648,88.867
1641937035.513,69.824,23.926,169.922,34.668,90.820
1641937035.515,46.387,21.484,185.059,24.902,113.770
1641937035.519,36.621,24.902,196.289,3.418,131.836
1641937035.523,52.734,27.832,99.121,9.766,106.445
1641937035.527,63.477,32.227,-114.746,36.621,44.922
1641937035.531,36.621,41.504,-47.363,40.527,74.707
1641937035.535,16.113,39.551,-10.742,22.949,72.266
1641937035.539,40.527,40.527,-8.789,29.785,33.691
1641937035.542,57.617,27.344,-79.102,47.363,58.594
1641937035.546,39.551,29.297,-168.945,54.688,53.711
1641937035.550,21.484,41.016,178.223,41.016,95.703
1641937035.554,21.484,28.320,201.172,27.832,56.641
1641937035.558,42.969,29.297,121.582,41.016,-1.953
1641937035.560,48.828,36.133,159.668,44.922,-29.785
1641937035.564,32.715,41.504,213.379,31.738,-23.926
1641937035.568,24.414,36.133,174.805,18.555,12.695
1641937035.572,41.016,30.273,112.793,21.973,53.223
1641937035.576,50.293,34.180,207.031,37.598,92.773
1641937035.580,28.809,33.203,156.738,29.785,55.664
1641937035.584,16.602,30.273,6.348,10.254,42.969
1641937035.587,32.715,21.484,-291.016,14.160,8.301
1641937035.591,57.129,30.762,-184.570,31.250,22.949
1641937035.595,53.711,38.574,253.418,30.273,41.992
1641937035.599,31.250,28.320,182.617,10.742,31.250
1641937035.603,38.574,22.461,62.988,14.160,39.062
1641937035.605,45.898,22.461,166.016,31.738,39.551
1641937035.609,33.203,23.438,265.625,38.086,113.770
1641937035.613,13.184,22.461,173.828,29.785,91.797
1641937035.617,6.348,28.809,143.066,17.090,65.430
1641937035.621,21.973,24.902,193.848,33.691,65.430
1641937035.625,18.066,20.020,127.441,48.340,22.461
1641937035.629,-6.836,17.090,-140.137,33.691,-4.883
1641937035.632,-8.301,27.832,-239.746,16.602,-3.418
1641937035.636,31.250,38.086,64.453,39.551,24.902
1641937035.640,51.270,31.738,170.410,78.613,68.848
1641937035.644,33.691,34.668,49.805,80.566,41.016
1641937035.648,22.461,35.645,54.199,67.871,28.320
1641937035.652,35.156,39.062,177.246,58.105,59.570
1641937035.656,46.387,43.457,199.707,71.289,91.309
1641937035.660,27.344,38.086,108.887,68.359,89.355
1641937035.664,9.277,35.156,104.004,30.762,70.801
1641937035.668,26.855,33.691,173.828,28.320,67.383
1641937035.672,41.016,19.531,37.109,37.109,35.645
1641937035.676,22.461,10.742,-181.152,35.645,6.836
1641937035.679,8.301,22.949,-18.555,25.879,-18.066
1641937035.683,17.578,26.367,268.555,9.277,15.137
1641937035.687,39.551,17.578,168.945,25.391,18.555
1641937035.691,46.387,15.625,133.789,40.527,24.414
1641937035.695,22.949,16.113,126.953,30.273,27.344
1641937035.696,10.742,22.949,190.430,28.809,41.504
1641937035.700,22.461,17.578,72.266,38.574,44.922
1641937035.704,33.203,20.508,5.371,58.105,19.043
1641937035.708,25.391,31.738,243.652,52.734,64.453
1641937035.712,5.371,32.715,255.371,35.645,62.988
1641937035.716,2.930,22.949,-73.242,38.086,-20.996
1641937035.720,11.719,23.438,-239.258,37.598,-34.668
1641937035.723,18.555,38.574,119.141,41.992,15.625
1641937035.727,6.348,34.180,204.102,22.461,30.273
1641937035.731,10.254,23.926,114.258,7.812,43.945
1641937035.735,29.297,19.043,105.957,24.902,29.785
1641937035.739,20.508,18.555,168.457,30.273,41.504
1641937035.756,3.906,18.555,133.301,6.836,34.668
1641937035.760,6.348,19.043,25.879,-13.184,-4.883
1641937035.764,34.668,21.484,-27.832,7.812,18.066
1641937035.768,47.852,23.438,51.758,27.832,49.805
1641937035.772,30.762,14.648,155.273,18.555,65.918
1641937035.776,17.090,5.371,-282.715,1.953,23.926
1641937035.780,41.016,16.113,-333.008,8.301,36.133
1641937035.783,62.500,20.020,116.211,35.156,50.293
1641937035.787,37.598,9.277,71.777,44.922,20.020
1641937035.791,15.137,9.277,2.441,30.762,79.102
1641937035.795,17.090,12.207,70.801,28.809,83.984
1641937035.799,33.203,14.160,158.691,49.805,62.012
1641937035.801,23.926,8.301,114.746,53.223,57.617
1641937035.805,1.953,6.836,35.156,33.691,34.668
1641937035.809,8.301,9.766,99.121,21.973,29.297
1641937035.813,36.621,12.207,157.227,40.527,32.715
1641937035.817,43.457,14.648,105.469,49.316,32.227
1641937035.821,16.602,17.090,-40.039,30.273,37.598
1641937035.825,11.230,21.973,-78.613,22.461,43.945
1641937035.828,42.969,23.926,56.641,32.715,62.988
1641937035.832,48.340,15.137,-45.410,43.945,71.777
1641937035.836,25.879,14.648,-321.289,26.367,33.203
1641937035.840,28.809,24.902,-28.320,8.789,40.527
1641937035.844,47.363,11.719,154.785,17.578,100.586
1641937035.845,54.199,8.789,89.355,35.645,89.844
1641937035.849,42.969,22.949,165.039,34.668,43.945
1641937035.853,39.062,25.391,197.754,18.066,24.902
1641937035.857,44.434,17.578,130.371,20.508,11.230
1641937035.861,51.758,11.719,84.961,34.668,5.859
1641937035.865,48.828,13.672,18.066,40.527,-24.414
1641937035.869,32.715,24.902,63.477,32.227,17.090
1641937035.872,32.715,21.973,125.977,23.926,65.918
1641937035.876,34.668,3.906,-236.328,33.203,16.113
1641937035.880,33.203,12.207,-121.094,45.410,-10.742
1641937035.884,20.996,22.949,300.293,38.574,42.480
1641937035.888,20.508,16.602,169.434,20.020,51.758
1641937035.890,46.875,24.902,109.863,24.902,8.789
1641937035.894,53.711,39.062,240.234,50.781,12.695
1641937035.898,25.879,36.621,289.062,44.434,41.016
1641937035.902,9.277,36.621,170.898,18.066,16.113
1641937035.906,31.250,43.457,147.949,11.719,-7.812
1641937035.910,42.480,41.504,128.418,28.320,29.297
1641937035.914,30.762,43.457,192.871,33.691,54.688
1641937035.917,11.719,32.227,36.621,5.371,0.000
1641937035.921,23.926,33.691,-132.812,-0.977,-33.691
1641937035.925,51.270,41.504,295.898,18.066,12.207
1641937035.929,41.992,30.273,319.824,31.738,37.109
1641937035.933,24.414,29.297,76.660,24.902,16.113
1641937035.935,33.203,35.645,162.598,14.648,-3.418
1641937035.939,55.176,38.086,334.961,30.762,2.930
1641937035.943,49.805,28.809,296.875,36.621,18.066
1641937035.947,28.320,31.738,223.145,21.973,-0.977
1641937035.951,28.809,37.109,261.230,18.066,-19.531
1641937035.955,44.434,31.738,169.922,27.832,-18.555
1641937035.959,48.340,28.809,62.988,45.410,-37.109
1641937035.962,20.020,25.879,-113.770,34.180,-58.105
1641937035.966,11.719,42.969,15.137,20.020,-10.254
1641937035.970,34.668,48.828,311.523,27.832,56.641
1641937035.974,46.875,35.156,193.848,41.504,40.527
1641937035.978,27.344,28.320,155.762,45.898,36.133
1641937035.981,5.371,29.785,313.965,25.391,76.172
1641937035.985,24.902,32.715,257.324,25.391,70.801
1641937035.989,44.922,33.203,82.031,50.293,11.230
1641937035.993,33.691,39.062,86.426,48.340,-26.367
1641937035.997,17.090,44.434,270.020,33.203,13.184
1641937036.001,18.555,35.156,187.500,26.367,39.062
1641937036.005,32.227,25.391,-58.105,40.039,11.719
1641937036.008,32.715,34.668,-62.500,57.617,13.672
1641937036.012,20.508,48.340,220.703,47.363,35.645
1641937036.016,14.648,46.387,250.977,32.715,3.418
1641937036.020,28.320,44.922,203.613,36.621,43.457
1641937036.024,32.715,46.387,224.121,52.734,60.547
1641937036.025,19.531,43.457,253.418,53.223,47.363
1641937036.029,17.090,34.180,210.938,44.922,54.199
1641937036.033,36.621,36.133,154.297,46.875,57.129
1641937036.037,51.270,36.133,175.781,57.129,70.801
1641937036.041,37.598,31.738,209.961,63.965,38.574
1641937036.045,13.184,31.738,130.859,42.969,-17.578
1641937036.049,18.066,23.926,-244.629,30.762,-38.086
1641937036.052,47.363,36.133,-147.461,49.316,-11.230
1641937036.056,43.945,38.574,270.996,60.547,38.574
1641937036.060,18.066,25.879,220.215,42.969,43.457
1641937036.064,17.090,30.273,124.023,24.902,26.855
1641937036.068,35.156,31.738,136.230,36.133,17.578
1641937036.085,38.086,30.762,240.234,51.758,44.434
1641937036.089,26.855,29.297,148.926,46.875,51.270
1641937036.093,27.344,43.457,49.805,23.438,57.129
1641937036.097,35.156,57.129,174.805,4.883,62.012
1641937036.101,54.199,47.363,196.289,24.414,47.363
1641937036.105,43.457,28.320,-68.848,31.250,32.227
1641937036.109,22.461,24.902,-257.812,7.324,5.371
1641937036.112,41.992,33.691,-45.410,6.348,-4.395
1641937036.116,63.965,39.062,217.773,31.250,49.805
1641937036.120,36.621,31.250,-46.875,37.598,11.719
1641937036.124,11.719,30.273,-167.480,22.949,-10.254
1641937036.128,25.879,37.109,145.508,19.531,28.809
1641937036.130,43.457,33.691,134.277,41.016,8.789
1641937036.134,35.156,33.691,114.746,59.082,14.648
1641937036.138,15.137,33.691,209.473,42.969,58.594
1641937036.142,8.789,29.785,231.445,21.484,93.262
1641937036.146,28.809,20.020,136.230,29.297,84.473
1641937036.150,33.691,14.648,17.090,48.828,32.227
1641937036.154,11.719,21.973,13.672,46.875,45.898
1641937036.157,4.883,17.578,149.902,29.785,69.336
1641937036.161,16.602,5.371,193.848,29.297,36.621
1641937036.165,22.461,1.465,-136.719,40.527,15.625
1641937036.169,16.113,25.879,-111.328,32.715,2.930
1641937036.173,12.207,26.855,226.074,20.508,-2.930
1641937036.175,17.578,10.742,182.617,27.832,6.836
1641937036.179,33.691,18.066,203.125,43.457,40.039
1641937036.183,32.715,23.438,218.262,47.852,40.527
1641937036.187,11.719,23.926,182.129,36.133,26.367
1641937036.191,15.137,19.043,192.383,27.344,31.250
1641937036.195,30.273,17.090,86.914,35.156,29.785
1641937036.199,24.902,19.531,29.785,37.598,25.879
1641937036.202,12.207,19.531,103.027,20.996,31.738
1641937036.206,13.184,10.742,-83.008,16.602,18.555
1641937036.210,30.273,15.137,-218.262,28.809,-18.555
1641937036.214,43.457,36.621,158.203,42.969,21.484
1641937036.218,30.762,34.668,230.469,30.762,51.758
1641937036.220,21.973,24.902,82.031,14.648,34.180
1641937036.224,44.434,27.832,178.223,36.133,51.758
1641937036.228,48.340,26.367,298.340,56.152,54.199
1641937036.232,25.879,20.508,178.223,57.617,7.324
1641937036.236,16.602,30.273,21.973,34.668,-11.230
1641937036.240,25.391,30.273,-43.457,21.973,-12.207
1641937036.244,39.062,22.949,5.371,44.434,9.766
1641937036.247,27.832,16.602,92.773,43.945,32.715
1641937036.251,3.418,14.160,-171.875,13.184,-0.488
1641937036.255,7.812,23.926,-101.562,-9.766,-15.137
1641937036.259,25.391,20.996,182.617,-2.930,-6.836
1641937036.263,21.973,16.113,69.336,10.742,-0.977
1641937036.265,-5.371,18.066,58.105,-6.348,34.668
1641937036.269,-9.277,21.484,156.738,-19.043,64.453
1641937036.273,12.695,24.414,146.484,-15.137,52.246
1641937036.277,14.648,26.855,-44.434,-8.301,57.617
1641937036.281,1.953,29.785,-87.891,-3.418,63.477
1641937036.285,-6.348,31.738,-12.695,-15.137,50.781
1641937036.289,0.488,37.109,-55.664,-17.090,31.738
1641937036.292,15.625,34.668,-209.961,-1.465,5.859
1641937036.296,8.789,35.156,-279.297,3.906,13.184
1641937036.300,-14.648,46.387,50.781,-3.418,39.551
1641937036.304,-9.277,41.504,137.695,-6.348,43.457
1641937036.308,17.090,32.715,7.324,11.230,39.551
1641937036.339,20.508,32.715,71.289,21.484,63.477
1641937036.343,-0.977,32.227,163.086,5.371,62.500
1641937036.347,-0.488,28.320,84.961,-6.836,31.738
1641937036.351,31.250,32.715,19.531,7.812,39.551
1641937036.355,40.527,42.480,101.562,37.109,71.289
1641937036.359,17.578,34.180,72.754,25.391,44.434
1641937036.363,20.508,27.344,-49.805,10.254,15.625
1641937036.366,52.246,35.156,-256.348,32.227,33.691
1641937036.370,63.477,41.016,-139.648,45.410,63.477
1641937036.374,53.223,46.387,266.602,41.992,68.359
1641937036.378,41.016,47.363,286.621,35.156,57.617
1641937036.382,51.270,44.922,163.574,29.297,8.301
1641937036.355,64.453,50.293,244.629,37.109,18.555
1641937036.359,49.316,47.363,329.102,40.527,73.242
1641937036.363,19.531,41.016,161.133,23.926,86.426
1641937036.367,15.625,43.945,79.102,12.207,72.266
1641937036.371,29.785,38.574,221.680,25.391,59.570
1641937036.375,16.113,28.809,146.973,39.062,101.562
1641937036.379,-3.418,34.180,-58.105,24.414,77.148
1641937036.382,4.395,42.480,21.484,1.953,48.828
1641937036.386,16.113,35.156,126.465,5.371,72.266
1641937036.390,20.996,41.016,125.488,33.203,46.875
1641937036.394,15.625,50.781,65.430,33.691,11.230
1641937036.398,5.859,48.828,11.230,2.441,20.508
1641937036.401,17.578,62.988,166.504,-5.859,77.637
1641937036.405,22.949,63.965,284.668,0.488,77.637
1641937036.409,7.324,47.852,54.688,-0.977,4.883
1641937036.413,-1.953,68.359,-33.691,-21.484,-11.230
1641937036.417,11.230,73.242,351.562,-22.949,-4.395
1641937036.421,22.949,49.316,432.129,-6.836,3.906
1641937036.425,20.508,57.617,240.234,0.977,-8.301
1641937036.428,10.742,71.289,418.457,-4.883,0.000
1641937036.432,14.648,74.707,657.715,-16.602,12.207
1641937036.436,24.414,69.824,468.262,-2.441,1.953
1641937036.440,10.742,69.336,419.922,12.695,1.465
1641937036.444,-18.066,81.055,515.137,2.930,20.996
1641937036.446,-27.344,92.285,500.000,-6.348,48.340
1641937036.450,-14.648,91.309,358.887,-0.488,67.383
1641937036.454,-8.789,95.215,361.328,18.066,78.613
1641937036.458,-28.809,100.098,543.945,6.348,68.848
1641937036.462,-49.316,97.168,490.234,-22.949,38.574
1641937036.466,-45.898,98.145,116.699,-16.602,41.016
1641937036.470,-34.668,98.145,-50.781,5.859,19.043
1641937036.473,-48.340,102.539,207.031,3.906,55.664
1641937036.477,-81.055,100.098,173.340,-30.273,63.477
1641937036.481,-83.984,98.633,-139.160,-47.852,5.371
1641937036.485,-52.246,107.422,-212.891,-16.602,-35.645
1641937036.489,-39.551,102.051,-105.957,2.930,-2.441
1641937036.506,-56.641,91.309,-209.473,-12.695,31.738
1641937036.510,-57.617,85.449,-408.203,-36.133,11.230
1641937036.514,-46.875,80.078,-537.109,-25.879,12.695
1641937036.518,-50.781,73.242,-493.652,-5.371,12.695
1641937036.522,-63.965,55.176,-473.633,-16.602,47.852
1641937036.526,-57.129,34.668,-827.637,-29.297,37.109
1641937036.530,-27.344,43.945,-884.766,-26.855,15.137
1641937036.533,-3.906,55.664,-521.973,-0.977,61.523
1641937036.537,-12.207,43.457,-530.273,10.254,61.523
1641937036.541,-22.949,40.039,-589.844,-2.930,63.965
1641937036.545,-3.418,37.109,-465.332,6.836,99.609
1641937036.549,17.090,32.715,-428.711,25.879,80.566
1641937036.551,3.418,31.738,-521.973,27.832,56.641
1641937036.555,-9.766,27.344,-581.055,18.066,60.059
1641937036.559,7.812,25.391,-478.027,20.508,60.547
1641937036.563,20.996,21.973,-434.570,40.527,93.750
1641937036.567,13.672,16.113,-479.492,55.176,99.609
1641937036.571,-4.883,19.531,-562.012,55.176,64.453
1641937036.575,0.977,28.320,-596.680,45.898,64.453
1641937036.578,26.855,39.551,-464.844,53.711,75.195
1641937036.582,20.996,34.668,-521.484,71.289,43.457
1641937036.586,-0.977,31.250,-798.828,50.781,-41.016
1641937036.590,11.719,41.992,-574.219,32.227,-50.781
1641937036.594,39.551,32.715,-332.520,44.434,-17.578
1641937036.595,50.781,23.926,-306.152,57.617,-22.461
1641937036.599,38.574,25.879,-205.566,50.293,-15.625
1641937036.603,33.203,29.785,-113.770,21.973,31.738
1641937036.607,48.340,28.320,-123.047,24.414,44.922
1641937036.611,70.801,20.508,-127.930,57.617,55.664
1641937036.615,69.824,15.625,-203.613,62.500,35.156
1641937036.619,48.340,16.113,-205.566,40.039,33.691
1641937036.622,54.199,9.766,-116.699,30.762,52.246
1641937036.626,73.242,3.906,-500.000,45.898,-21.973
1641937036.630,80.566,16.602,-427.734,57.617,-12.207
1641937036.634,67.383,24.902,39.062,46.387,54.199
1641937036.638,57.617,17.578,-36.621,33.203,54.199
1641937036.655,69.824,12.207,-74.707,41.504,21.973
1641937036.659,78.613,10.254,119.141,66.406,27.832
1641937036.663,67.383,6.348,149.902,64.941,18.066
1641937036.667,51.758,-0.488,7.324,46.387,-17.090
1641937036.671,62.012,0.977,12.695,55.176,1.953
1641937036.675,69.824,5.859,-11.719,78.613,6.836
1641937036.679,60.547,9.277,-30.762,81.055,-2.930
1641937036.682,47.852,3.418,-156.250,61.035,-5.859
1641937036.686,58.594,7.812,-253.906,59.082,0.000
1641937036.690,84.961,22.949,116.211,77.148,45.898
1641937036.694,73.730,12.695,169.922,74.219,36.621
1641937036.698,47.852,10.254,-59.570,50.781,-0.488
1641937036.685,53.711,27.344,72.266,50.293,15.625
1641937036.689,69.336,25.879,292.969,71.777,48.828
1641937036.693,67.383,11.719,262.207,76.660,46.387
1641937036.697,44.922,15.625,187.988,56.641,19.043
1641937036.701,39.551,15.625,219.238,45.410,41.992
1641937036.705,63.477,8.301,129.883,50.781,31.250
1641937036.709,76.660,15.625,17.090,66.406,14.648
1641937036.712,62.988,21.484,62.500,57.129,20.508
1641937036.716,47.852,25.879,164.062,29.785,-20.508
1641937036.720,64.453,23.438,245.605,40.527,-14.648
1641937036.724,83.984,12.695,169.434,61.523,24.414
1641937036.728,63.477,16.602,-46.875,53.711,-3.418
1641937036.731,43.457,28.809,115.234,25.391,-26.855
1641937036.735,62.012,24.414,202.148,29.785,-17.578
1641937036.739,72.266,18.066,-15.625,57.617,-27.832
1641937036.743,61.523,18.555,48.340,65.430,7.324
1641937036.747,45.898,19.531,316.406,57.617,63.965
1641937036.751,34.668,19.043,222.168,38.574,41.016
1641937036.755,43.945,20.996,-76.660,40.527,18.555
1641937036.758,57.129,31.738,-97.656,70.312,39.551
1641937036.762,46.875,33.203,246.094,66.895,69.824
1641937036.766,34.668,26.855,317.871,43.945,73.242
1641937036.770,49.805,29.785,182.129,41.016,43.457
1641937036.774,60.547,29.297,208.008,56.641,15.137
1641937036.775,35.645,29.297,344.727,62.988,71.289
1641937036.779,21.484,18.066,317.383,47.363,81.055
1641937036.783,41.992,12.207,171.875,50.293,31.250
1641937036.787,55.176,26.855,215.820,65.430,6.348
1641937036.791,33.691,26.855,185.547,60.547,2.930
1641937036.795,6.836,23.438,85.449,41.016,21.484
1641937036.799,11.230,24.414,-196.289,24.902,-8.789
1641937036.802,35.156,28.320,-153.809,35.645,-17.578
1641937036.806,38.574,31.250,270.020,41.016,34.180
1641937036.810,16.602,30.273,192.871,29.297,57.617
1641937036.814,11.230,38.086,120.117,22.461,20.020
1641937036.818,41.992,53.711,220.703,39.551,-6.348
1641937036.835,64.941,60.547,339.844,71.777,36.621
1641937036.839,39.062,40.527,293.945,49.805,59.570
1641937036.843,17.578,26.367,215.820,20.996,45.410
1641937036.847,28.809,32.715,281.738,34.180,75.195
1641937036.851,27.344,28.809,251.953,45.898,91.797
1641937036.855,4.395,18.555,-46.875,43.457,49.805
1641937036.859,0.000,25.879,-149.414,30.273,1.953
1641937036.862,23.926,36.621,44.434,37.109,-16.113
1641937036.866,42.480,33.203,240.723,56.641,36.621
1641937036.870,29.785,17.090,85.449,55.664,33.691
1641937036.874,11.719,10.254,-100.098,35.645,-29.785
1641937036.878,25.391,20.996,197.754,23.926,-3.418
1641937036.880,41.992,26.367,278.320,40.527,-0.977
1641937036.884,36.621,29.297,236.816,58.594,8.789
1641937036.888,17.578,37.598,262.695,45.898,40.527
1641937036.892,11.719,45.898,311.035,30.273,8.301
1641937036.896,29.785,35.645,269.043,40.527,18.555
1641937036.900,39.551,28.320,149.414,62.012,48.340
1641937036.904,22.949,32.227,99.121,53.711,47.852
1641937036.907,14.160,38.574,198.730,36.133,31.738
1641937036.911,30.762,43.457,219.727,44.434,5.859
1641937036.915,33.691,36.133,-162.598,53.223,-13.184
1641937036.919,25.391,47.852,-94.238,50.781,-0.977
1641937036.923,17.090,50.781,296.387,34.180,11.230
1641937036.926,21.973,45.410,182.129,29.785,20.508
1641937036.930,38.574,47.363,146.973,42.969,41.504
1641937036.934,32.715,48.340,310.547,53.223,71.777
1641937036.938,13.184,47.363,335.449,44.434,97.656
1641937036.942,20.020,41.016,172.852,30.762,55.664
1641937036.946,44.922,39.062,84.961,48.828,30.273
1641937036.950,43.945,39.551,54.688,57.129,27.344
1641937036.953,34.180,49.316,174.316,42.480,37.109
1641937036.957,22.949,41.504,21.973,23.926,9.277
1641937036.961,29.785,43.945,-172.363,24.902,-34.668
1641937036.965,41.016,64.453,188.477,44.434,42.969
1641937036.969,17.578,55.664,311.035,33.691,78.613
1641937036.970,-1.953,46.387,97.656,6.836,42.969
1641937036.974,15.137,57.617,58.594,17.090,37.598
1641937036.978,37.109,58.105,195.312,35.156,40.039
1641937036.982,17.578,50.781,144.043,29.297,32.715
1641937036.986,-3.418,50.781,-11.719,5.371,-10.254
1641937036.990,11.230,51.270,-115.723,1.953,-38.574
1641937036.994,34.668,53.711,-70.801,34.180,-20.020
1641937036.997,30.762,41.016,34.668,45.410,4.395
1641937037.001,6.836,27.344,-216.309,22.461,-20.996
1641937037.005,9.766,39.062,-146.484,1.953,-7.324
1641937037.009,29.785,36.621,168.945,10.742,9.766
1641937037.013,32.227,31.738,135.254,35.156,43.945
1641937037.016,21.973,34.180,53.223,24.414,50.293
1641937037.020,16.602,41.016,97.168,4.883,34.668
1641937037.024,33.691,41.992,226.562,7.812,73.242
1641937037.028,45.410,40.527,-6.836,17.578,49.805
1641937037.032,40.039,56.152,-85.938,24.414,32.715
1641937037.036,38.086,53.711,-20.996,5.859,21.484
1641937037.040,53.223,53.711,-5.859,12.695,3.418
1641937037.043,63.965,40.527,-112.793,28.320,-20.508
1641937037.047,46.387,34.668,-234.375,31.250,-31.250
1641937037.051,32.715,46.875,107.910,32.715,-1.465
1641937037.055,38.574,43.945,142.090,20.508,-14.648
1641937037.059,53.711,48.828,119.141,40.039,0.977
1641937037.060,48.828,54.199,211.426,47.363,64.941
1641937037.064,19.531,52.246,246.094,24.902,94.727
1641937037.068,11.719,42.969,159.180,16.602,75.195
1641937037.072,35.156,39.551,99.609,23.438,98.145
1641937037.076,39.062,42.969,195.801,38.086,140.137
1641937037.080,12.207,39.062,98.633,26.367,91.309
1641937037.084,0.977,41.992,-31.250,11.719,28.809
1641937037.087,20.020,35.645,-282.227,17.578,-6.348
1641937037.091,36.621,42.969,-237.793,34.668,11.230
1641937037.095,27.832,54.688,258.301,36.133,80.566
1641937037.099,10.742,39.551,207.520,17.578,76.660
1641937037.103,22.461,36.621,59.570,25.879,65.430
1641937037.105,46.387,45.898,196.777,56.152,84.473
1641937037.109,35.645,49.316,279.297,63.965,73.730
1641937037.113,3.906,47.363,110.352,38.086,69.336
1641937037.117,1.465,51.270,30.273,13.672,49.316
1641937037.121,28.320,53.711,191.406,27.832,71.289
1641937037.125,34.180,57.129,166.992,44.434,117.676
1641937037.129,12.207,62.500,-116.699,23.438,62.988
1641937037.132,8.789,60.547,-199.707,6.348,30.762
1641937037.136,29.297,55.664,45.898,22.949,19.531
1641937037.140,41.992,50.781,149.902,43.457,15.137
1641937037.144,22.461,48.828,114.258,37.109,20.508
1641937037.148,9.277,39.551,88.379,12.695,-31.738
1641937037.151,26.855,41.504,235.352,11.230,-5.859
1641937037.155,37.598,45.898,248.535,27.832,25.391
1641937037.159,19.531,39.551,153.320,25.879,2.930
1641937037.163,3.906,40.039,173.828,10.254,33.691
1641937037.167,14.648,45.898,157.227,12.207,29.785
1641937037.171,26.855,35.645,32.227,28.809,-2.930
1641937037.175,8.301,22.461,-221.191,20.508,-0.977
1641937037.178,-8.789,35.156,-100.586,-6.836,20.996
1641937037.182,-0.488,45.898,240.723,-13.184,63.965
1641937037.186,14.160,40.039,213.379,1.953,69.336
1641937037.190,15.625,36.621,169.434,5.859,57.617
1641937037.194,-2.441,40.527,159.668,-1.953,69.824
1641937037.196,3.418,46.387,145.020,-7.812,70.801
1641937037.200,20.508,37.598,62.988,2.441,59.570
1641937037.204,25.879,39.551,19.043,29.785,55.664
1641937037.208,16.602,45.410,169.922,24.902,61.035
1641937037.212,3.906,42.480,196.289,3.418,97.168
1641937037.216,22.949,40.527,-33.203,23.926,83.008
1641937037.220,40.527,47.852,-75.684,50.781,41.992
1641937037.223,26.855,46.875,218.750,43.945,55.176
1641937037.227,1.465,29.297,247.070,18.066,76.172
1641937037.231,8.301,22.461,-77.148,8.789,33.691
1641937037.235,26.367,20.020,-122.070,29.297,33.691
1641937037.239,17.578,18.555,123.047,37.109,76.660
1641937037.255,3.906,28.320,181.152,27.832,64.941
1641937037.259,12.207,33.691,148.926,15.137,24.902
1641937037.263,39.551,33.691,13.672,23.926,-21.973
1641937037.267,55.176,46.875,41.504,47.852,-14.648
1641937037.271,35.645,45.898,113.281,38.086,30.762
1641937037.275,25.879,32.715,-93.262,24.414,44.922
1641937037.279,53.711,43.457,-109.375,29.785,43.945
1641937037.282,72.754,48.340,146.973,42.969,23.926
1641937037.286,56.152,30.762,129.883,44.434,35.645
1641937037.290,43.945,34.668,-131.348,21.973,41.016
1641937037.294,66.406,50.293,9.766,21.973,41.992
1641937037.298,75.684,43.457,199.219,41.016,61.523
1641937037.301,52.734,34.180,121.582,40.527,47.363
1641937037.305,29.785,38.086,70.312,26.855,18.066
1641937037.309,38.086,44.922,123.535,24.414,20.996
1641937037.313,48.340,37.598,173.828,36.621,23.438
1641937037.317,35.156,31.738,133.301,37.109,16.602
1641937037.321,11.230,32.227,-3.906,11.719,11.719
1641937037.325,1.465,36.621,-45.898,1.465,4.395
1641937037.328,23.926,43.945,123.047,17.090,57.129
1641937037.332,29.785,38.574,-37.598,33.203,22.461
1641937037.336,3.906,40.039,-285.645,13.184,-22.949
1641937037.340,5.859,44.922,44.922,-3.906,38.574
1641937037.344,32.227,36.133,219.727,18.066,35.156
1641937037.360,42.969,34.668,108.398,38.574,-19.043
1641937037.364,23.438,40.527,150.391,39.551,-15.625
1641937037.368,14.648,34.668,231.445,14.160,13.672
1641937037.372,31.250,17.578,144.043,8.301,-1.465
1641937037.376,41.504,7.812,99.121,36.133,-1.465
1641937037.380,34.180,7.812,87.402,41.504,7.812
1641937037.384,19.043,16.602,-51.270,26.367,-16.602
1641937037.387,23.926,19.531,12.695,25.879,15.137
1641937037.391,36.133,17.578,-206.055,46.387,15.625
1641937037.395,37.598,27.832,-263.672,55.176,27.344
1641937037.399,22.949,38.086,157.715,43.945,104.980
1641937037.403,16.113,36.133,140.137,29.785,81.055
1641937037.390,31.250,35.645,66.895,28.809,17.090
1641937037.394,35.645,43.945,181.641,42.969,12.207
1641937037.398,20.020,48.828,244.629,38.086,42.480
1641937037.402,11.719,49.805,128.418,13.184,34.180
1641937037.406,32.227,47.363,120.117,14.160,13.184
1641937037.410,44.434,42.480,76.660,31.738,49.316
1641937037.414,24.414,54.199,6.836,41.016,40.527
1641937037.417,11.230,58.594,73.242,25.879,44.922
1641937037.421,27.344,46.387,115.723,23.438,70.801
1641937037.425,48.340,42.969,215.820,55.664,58.594
1641937037.429,41.992,41.016,150.879,66.895,55.664
1641937037.433,8.789,41.504,-33.203,46.875,29.785
1641937037.435,6.348,45.898,91.797,35.645,19.531
1641937037.439,26.367,44.922,259.277,47.363,14.648
1641937037.443,25.879,41.504,270.508,53.223,23.926
1641937037.447,-1.465,35.645,-65.430,32.227,38.574
1641937037.451,-0.977,48.340,-98.633,22.461,31.250
1641937037.455,24.902,47.852,121.094,36.133,25.391
1641937037.459,24.414,30.273,53.223,53.223,15.625
1641937037.462,2.441,30.273,-66.406,51.270,20.508
1641937037.466,6.836,45.410,34.668,31.738,50.781
1641937037.470,32.227,51.758,299.805,32.715,69.336
1641937037.474,41.504,46.387,289.551,46.875,61.035
1641937037.478,26.367,41.016,266.602,43.945,59.082
1641937037.481,5.371,43.457,349.609,26.855,87.402
1641937037.485,11.230,45.898,309.082,26.367,83.984
1641937037.489,26.367,37.598,1.953,46.387,28.320
1641937037.493,24.902,43.457,8.789,60.059,22.949
1641937037.497,8.789,49.316,232.422,50.293,34.668
1641937037.501,8.789,39.551,182.129,34.668,57.617
1641937037.505,18.555,25.879,-90.332,35.156,30.762
1641937037.508,20.508,26.855,-186.035,47.852,10.742
1641937037.512,5.859,39.062,127.441,34.180,53.711
1641937037.516,1.465,32.715,205.078,12.695,37.598
1641937037.520,35.156,35.645,117.188,18.066,34.180
1641937037.524,46.875,43.457,204.590,30.273,82.520
1641937037.525,26.367,41.504,303.711,25.879,62.012
1641937037.529,12.695,34.668,264.648,4.883,59.082
1641937037.533,31.738,27.832,169.922,6.348,72.754
1641937037.537,56.152,37.109,199.707,25.391,23.438
1641937037.541,40.527,35.645,171.875,24.414,-0.488
1641937037.545,28.320,24.902,57.129,16.602,-2.441
1641937037.549,34.668,26.855,-247.070,14.160,-20.508
1641937037.552,48.828,40.039,-171.875,33.691,6.836
1641937037.556,50.293,43.457,331.055,42.969,30.273
1641937037.560,20.996,32.227,270.020,22.949,8.789
1641937037.564,19.531,33.203,142.090,13.184,-31.738
1641937037.568,28.320,40.039,299.805,27.832,-18.066
1641937037.586,29.297,44.434,349.609,46.387,20.020
1641937037.590,15.137,42.480,189.453,30.762,-11.719
1641937037.594,12.695,41.016,85.449,15.625,-27.832
1641937037.598,45.410,44.434,224.121,40.527,-15.137
1641937037.602,56.152,44.922,347.168,53.223,-16.602
1641937037.606,30.762,33.203,58.105,40.527,-21.484
1641937037.610,16.602,35.645,-46.387,17.090,18.066
1641937037.613,41.504,43.945,166.992,23.926,78.125
1641937037.617,70.312,43.457,360.840,68.359,72.266
1641937037.621,55.664,40.527,193.359,64.941,0.977
1641937037.625,21.973,48.828,21.973,10.254,-27.832
1641937037.629,34.668,52.734,363.281,-4.395,26.367
1641937037.631,64.941,40.527,417.969,27.832,20.020
1641937037.635,69.336,45.410,396.484,50.293,31.250
1641937037.639,41.992,56.641,417.480,32.227,42.480
1641937037.643,22.461,53.711,391.602,11.719,30.762
1641937037.647,32.227,41.504,268.066,11.719,41.016
1641937037.651,39.062,34.668,169.922,37.598,86.914
1641937037.655,18.066,38.574,77.637,37.109,82.520
1641937037.658,4.883,48.340,134.766,13.672,47.852
1641937037.662,17.578,41.016,181.641,18.066,35.645
1641937037.666,27.832,35.156,-78.613,28.320,11.230
1641937037.670,21.484,45.410,-74.219,27.832,-0.977
1641937037.674,9.277,47.852,167.480,13.184,7.324
1641937037.675,20.020,51.270,121.094,12.695,27.832
1641937037.679,33.691,48.340,66.895,35.645,60.547
1641937037.683,20.996,38.086,263.672,34.668,48.340
1641937037.687,9.277,31.738,278.809,21.973,43.457
1641937037.691,19.531,30.762,117.188,8.301,25.391
1641937037.695,27.832,31.738,-48.828,18.066,-7.324
1641937037.699,40.527,41.016,0.977,44.922,40.039
1641937037.702,31.738,44.922,161.621,35.645,50.293
1641937037.706,12.695,33.203,-61.523,21.484,15.625
1641937037.710,36.133,37.598,-235.840,38.086,-10.254
1641937037.714,48.340,49.316,115.234,61.523,4.395
1641937037.718,14.160,37.109,245.605,48.340,48.340
1641937037.721,-1.953,28.809,81.543,29.785,44.434
1641937037.725,23.438,23.438,-19.043,38.574,-6.348
1641937037.729,41.016,29.785,93.262,56.641,-37.109
1641937037.733,30.762,29.785,135.254,61.035,-36.621
1641937037.737,12.695,24.414,-35.156,41.016,-35.645
1641937037.741,26.367,35.645,-83.496,39.551,-18.555
1641937037.745,54.688,43.457,-3.906,58.105,-5.859
1641937037.748,48.828,41.992,6.836,63.477,-3.906
1641937037.752,26.855,41.016,27.344,43.457,-7.324
1641937037.756,27.344,48.340,149.414,24.414,40.527
1641937037.760,44.434,48.340,232.910,27.832,74.707
1641937037.764,41.016,38.574,145.020,45.410,64.453
1641937037.766,21.973,36.621,-94.238,39.062,21.973
1641937037.770,18.555,47.852,39.062,20.996,38.574
1641937037.774,44.434,47.852,219.727,30.762,68.848
1641937037.778,55.664,41.504,74.707,44.434,22.461
1641937037.782,31.738,34.668,6.836,38.574,13.184
1641937037.786,14.160,30.273,3.418,25.879,17.090
1641937037.790,28.809,31.738,23.926,33.691,17.578
1641937037.793,41.504,21.484,-58.594,41.504,15.137
1641937037.797,26.855,27.344,-226.562,42.969,38.574
1641937037.801,16.113,50.781,48.340,33.203,76.660
1641937037.805,20.996,42.480,240.234,18.066,66.895
1641937037.809,35.156,37.598,180.176,32.227,71.289
1641937037.810,29.785,46.387,189.941,41.016,70.312
1641937037.814,4.395,41.504,253.418,26.367,67.871
1641937037.818,1.953,25.391,194.824,15.137,55.664
1641937037.822,22.461,23.926,139.648,24.414,62.988
1641937037.826,22.461,34.180,190.430,39.062,49.316
1641937037.830,-4.883,36.133,85.938,26.367,48.828
1641937037.834,-12.207,41.016,-6.348,13.184,52.734
1641937037.837,5.371,34.180,-232.422,21.973,46.875
1641937037.841,12.695,40.039,-190.918,31.738,33.203
1641937037.845,1.953,55.664,245.605,32.227,66.406
1641937037.849,-11.719,44.434,166.016,7.324,65.918
1641937037.853,8.301,46.387,63.965,9.766,41.992
1641937037.855,30.273,51.270,208.984,44.922,56.152
1641937037.859,27.832,47.363,220.703,45.410,56.152
1641937037.863,20.020,45.898,91.797,29.785,58.594
1641937037.867,26.367,42.969,98.633,19.531,53.223
1641937037.871,48.340,48.340,206.543,27.832,39.551
1641937037.875,46.387,56.641,134.277,39.062,39.551
1641937037.879,24.414,55.664,-32.715,18.066,32.227
1641937037.882,21.973,56.641,7.324,-3.906,6.836
1641937037.886,53.711,71.289,492.188,2.930,115.723
1641937037.890,65.918,70.801,641.113,15.625,124.512
1641937037.894,41.016,68.359,515.625,6.836,24.902
1641937037.898,15.137,71.777,581.055,-24.414,9.766
1641937037.901,26.855,79.102,744.141,-22.461,22.461
1641937037.905,36.621,79.590,770.996,-3.906,30.273
1641937037.909,8.301,81.543,660.156,-14.648,4.395
1641937037.913,-3.906,94.238,621.094,-30.273,26.855
1641937037.917,7.324,97.656,621.094,-34.180,58.594
1641937037.921,7.324,95.215,448.730,-19.043,2.930
1641937037.925,-12.695,98.633,250.977,-8.789,-18.066
1641937037.928,-28.320,119.141,411.621,-17.578,-6.348
1641937037.932,-19.043,133.789,665.039,-22.461,33.691
1641937037.936,-7.812,126.465,505.371,-9.277,48.340
1641937037.940,-21.484,131.836,426.270,-8.789,41.992
1641937037.944,-46.387,137.695,408.691,-33.691,47.852
1641937037.946,-54.199,125.000,168.945,-50.293,38.086
1641937037.950,-37.109,122.070,-81.055,-45.410,1.953
1641937037.954,-31.738,134.766,-120.117,-35.645,8.789
1641937037.958,-58.105,136.230,3.906,-50.781,81.543
1641937037.962,-74.707,113.770,-146.973,-71.777,49.805
1641937037.966,-73.242,97.168,-547.852,-62.988,13.184
1641937037.970,-70.801,105.469,-728.027,-52.246,-14.160
1641937037.973,-73.730,116.211,-494.629,-49.316,-4.883
1641937037.977,-84.473,102.539,-478.516,-66.406,19.531
1641937037.981,-72.754,90.820,-731.445,-76.172,8.301
1641937037.985,-45.410,88.379,-711.426,-44.922,76.172
1641937037.989,-51.270,74.707,-544.922,-32.715,103.516
1641937038.005,-78.613,55.176,-672.363,-54.688,18.066
1641937038.009,-79.590,50.781,-814.453,-66.895,-14.648
1641937038.013,-56.152,45.410,-895.508,-57.617,37.109
1641937038.017,-47.363,44.434,-888.672,-41.504,56.152
1641937038.021,-56.152,41.016,-853.516,-52.734,15.625
1641937038.025,-54.199,39.551,-943.848,-64.941,-35.156
1641937038.029,-32.227,47.363,-996.582,-45.898,-24.902
1641937038.032,-18.555,45.410,-861.816,-24.414,29.297
1641937038.036,-39.551,31.738,-800.781,-23.438,58.105
1641937038.040,-40.527,23.438,-915.527,-27.832,25.391
1641937038.044,-11.719,29.785,-790.039,-9.766,10.254
1641937038.048,2.441,32.227,-622.559,8.789,43.945
1641937038.051,-4.395,25.879,-756.836,7.324,42.480
1641937038.055,-11.230,25.879,-970.215,-2.441,-33.691
1641937038.059,13.184,31.738,-802.246,-5.371,7.812
1641937038.063,37.109,23.438,-636.230,22.949,88.867
1641937038.067,36.621,19.531,-730.469,43.945,61.523
1641937038.071,20.508,20.996,-823.242,30.273,53.223
1641937038.075,22.949,20.508,-779.297,28.320,56.641
1641937038.078,59.082,21.973,-642.090,53.223,35.156
1641937038.082,66.406,13.672,-750.977,71.777,-7.324
1641937038.086,45.898,3.418,-937.500,55.664,-6.836
1641937038.090,50.781,10.742,-647.949,42.969,18.066
1641937038.094,61.523,3.418,-533.691,63.477,10.254
1641937038.096,68.359,8.301,-539.551,85.449,26.855
1641937038.100,60.059,15.137,-396.973,85.449,88.867
1641937038.104,43.457,9.277,-405.273,51.270,73.730
1641937038.108,55.664,2.930,-525.879,46.875,55.664
1641937038.112,67.383,1.953,-645.508,72.754,41.992
1641937038.116,42.480,-1.953,-692.383,64.453,57.617
1641937038.120,27.832,-5.371,-689.941,42.480,47.852
1641937038.123,50.781,-0.977,-637.207,30.273,6.348
1641937038.127,69.336,-7.812,-869.629,46.387,-2.441
1641937038.131,68.359,6.836,-814.453,69.824,0.000
1641937038.135,62.012,15.137,-360.840,64.941,14.160
1641937038.139,65.430,3.906,-332.520,55.664,28.809
1641937038.140,85.938,-0.488,-366.699,60.547,54.199
1641937038.144,90.820,-3.906,-296.387,75.195,59.082
1641937038.148,59.082,-1.953,-280.762,78.125,41.992
1641937038.152,43.945,4.883,-334.473,61.523,6.836
1641937038.156,68.848,10.254,-319.824,65.430,7.324
1641937038.160,83.496,1.465,-286.621,82.031,44.434
1641937038.164,62.012,-6.348,-221.191,76.660,48.340
1641937038.167,35.645,-15.625,-309.570,57.617,42.480
1641937038.171,46.387,-6.836,-484.863,56.152,49.805
1641937038.175,76.172,16.113,-177.734,74.707,58.594
1641937038.179,68.359,5.859,-53.223,75.684,74.707
1641937038.183,41.992,2.441,-288.574,58.105,49.805
1641937038.185,57.129,12.207,-176.270,48.828,89.844
1641937038.189,81.055,12.207,-2.441,56.641,103.027
1641937038.193,79.590,14.160,-53.711,62.012,62.012
1641937038.197,65.430,14.648,-140.137,45.410,45.410
1641937038.201,63.965,15.137,-133.789,37.598,16.602
1641937038.205,81.543,15.137,-195.801,53.223,-2.930
1641937038.209,84.961,15.625,-244.629,67.383,-7.812
1641937038.212,61.035,13.184,-373.535,55.176,-20.020
1641937038.216,55.176,12.695,-253.418,38.574,6.348
1641937038.220,77.148,13.184,7.812,44.434,5.371
1641937038.224,79.102,13.672,-61.523,63.477,-1.953
1641937038.228,59.570,16.113,-68.848,69.336,32.227
1641937038.231,47.852,18.555,-18.066,51.270,16.602
1641937038.235,51.758,22.461,-99.609,41.016,-14.648
1641937038.239,59.082,21.973,-277.832,59.570,-5.859
1641937038.243,56.641,26.855,-273.438,67.871,-1.953
1641937038.247,39.062,27.344,-67.871,49.316,-0.488
1641937038.251,37.109,22.949,-87.891,37.598,31.250
1641937038.255,59.082,23.926,-276.367,50.781,5.371
1641937038.258,53.711,27.832,-324.219,58.594,-46.875
1641937038.262,37.598,36.621,-56.641,46.387,-7.324
1641937038.266,40.039,30.273,108.887,36.621,32.715
1641937038.270,57.617,29.785,99.121,51.270,26.855
1641937038.274,70.312,30.273,119.141,71.289,41.992
1641937038.276,54.688,25.391,178.223,69.824,36.133
1641937038.280,40.527,21.484,132.324,50.293,44.922
1641937038.284,51.270,15.137,2.930,41.016,36.621
1641937038.288,69.824,23.926,118.164,61.523,48.828
1641937038.292,60.059,22.949,137.207,64.941,56.641
1641937038.296,36.133,11.230,-5.859,54.199,41.016
1641937038.300,41.992,3.906,-240.234,54.688,17.578
1641937038.303,60.547,18.066,-252.930,67.383,-38.086
1641937038.307,58.105,30.273,140.625,75.195,-15.625
1641937038.311,35.156,23.438,185.547,63.477,12.207
1641937038.315,38.086,22.949,128.418,57.129,12.695
1641937038.319,61.523,26.367,254.395,67.871,34.668
1641937038.335,59.082,28.320,301.270,77.637,31.738
1641937038.339,32.227,30.762,170.898,60.547,5.859
1641937038.343,29.785,34.180,110.352,46.387,14.648
1641937038.347,50.781,33.203,221.680,62.012,18.555
1641937038.351,60.059,36.621,367.676,83.984,40.039
1641937038.355,35.156,29.297,112.305,83.008,21.484
1641937038.359,13.184,24.902,-94.727,57.129,3.906
1641937038.362,22.949,27.344,156.250,53.223,63.477
1641937038.366,34.180,30.273,355.469,74.219,88.867
1641937038.370,14.648,29.297,131.836,70.312,46.387
1641937038.374,-2.441,37.109,-21.484,43.945,14.160
1641937038.378,12.207,44.922,260.742,23.926,20.020
1641937038.381,32.715,32.715,315.430,35.156,37.109
1641937038.385,31.738,31.250,286.621,50.781,67.383
1641937038.389,6.348,27.344,319.824,29.785,46.875
1641937038.393,8.789,24.414,371.582,19.043,47.852
1641937038.397,29.785,22.949,352.539,20.020,51.270
1641937038.401,37.598,22.461,247.559,33.203,18.555
1641937038.405,24.414,24.414,165.527,41.016,41.992
1641937038.408,28.320,26.855,255.371,25.391,65.430
1641937038.412,53.223,31.250,360.352,38.086,67.871
1641937038.416,47.363,24.414,12.207,47.852,33.203
1641937038.420,28.320,22.949,-79.590,38.574,-13.184
1641937038.424,21.484,32.715,293.457,37.598,-9.766
1641937038.426,17.090,28.320,269.531,37.598,-23.438
1641937038.430,21.484,37.109,179.199,46.387,-6.836
1641937038.434,23.926,47.363,387.695,44.434,58.105
1641937038.438,7.812,39.062,460.449,32.227,71.289
1641937038.442,-4.395,38.086,330.566,20.508,54.688
1641937038.446,10.742,39.062,201.660,25.879,23.926
1641937038.450,24.414,42.480,222.656,45.898,12.695
1641937038.453,19.043,44.434,389.160,32.227,0.488
1641937038.457,24.414,34.668,230.957,16.602,-31.250
1641937038.461,55.176,46.875,84.961,29.785,-28.809
1641937038.465,77.637,60.059,420.410,51.270,13.184
1641937038.469,75.684,52.246,528.809,62.012,46.387
1641937038.471,59.082,41.016,336.914,43.457,35.156
1641937038.475,50.293,28.809,220.703,30.273,13.184
1641937038.479,57.129,25.879,380.371,48.828,35.156
1641937038.483,38.086,33.691,362.305,47.852,4.883
1641937038.487,12.695,43.457,155.762,21.973,-25.391
1641937038.491,20.020,38.086,126.465,10.254,-8.789
1641937038.495,35.645,31.250,273.926,30.762,-18.555
1641937038.498,25.879,22.461,418.945,46.875,0.000
1641937038.502,3.418,17.090,122.070,30.273,0.977
1641937038.506,13.672,34.668,154.785,19.531,27.344
1641937038.510,31.738,41.016,420.410,39.062,58.594
1641937038.514,29.785,36.621,275.879,58.105,48.828
1641937038.516,16.113,40.039,281.250,45.410,27.344
1641937038.520,11.230,40.527,379.883,21.484,2.930
1641937038.524,29.297,33.691,378.906,23.438,28.320
1641937038.528,37.109,27.344,243.652,37.598,23.926
1641937038.532,19.531,28.809,171.387,29.297,-28.809
1641937038.536,13.672,40.527,146.973,9.766,-18.066
1641937038.540,31.250,49.805,154.785,11.230,-20.020
1641937038.543,49.805,46.875,99.121,36.133,-18.555
1641937038.547,41.992,44.434,-148.926,39.062,-17.090
1641937038.551,30.273,47.363,88.379,19.531,-16.113
1641937038.555,41.016,40.527,320.312,17.090,20.996
1641937038.559,54.199,40.039,277.344,29.297,22.949
1641937038.560,47.363,43.457,323.242,32.715,-4.395
1641937038.564,23.438,43.457,394.043,11.230,-0.488
1641937038.568,10.254,39.551,297.852,-2.441,12.207
1641937038.572,26.367,41.992,228.027,11.230,-2.441
1641937038.576,35.645,36.133,310.547,27.344,-5.859
1641937038.580,6.348,25.879,218.750,10.742,11.719
1641937038.584,-16.602,26.367,5.371,-21.484,-28.809
1641937038.587,1.465,36.133,-6.836,-9.766,-42.969
1641937038.591,18.066,44.434,222.656,11.230,-12.695
1641937038.595,5.859,40.039,307.129,13.672,5.371
1641937038.599,-10.254,30.762,279.297,0.977,67.383
1641937038.603,-6.836,27.344,-76.172,-7.812,4.883
1641937038.605,22.949,41.992,11.230,13.184,-8.789
1641937038.609,31.738,39.062,359.863,27.832,26.367
1641937038.613,16.602,34.180,258.301,21.973,8.301
1641937038.617,26.855,40.039,234.863,13.184,5.859
1641937038.621,50.781,37.109,298.828,27.832,7.324
1641937038.625,48.828,37.109,280.762,52.246,51.270
1641937038.629,20.508,28.320,61.523,30.273,65.918
1641937038.632,16.113,31.738,-59.082,11.230,59.570
1641937038.636,48.340,37.598,247.559,29.785,63.477
1641937038.640,51.758,29.785,328.613,53.223,68.848
1641937038.644,22.461,33.691,184.570,54.688,83.496
1641937038.648,16.602,30.762,209.961,35.156,64.941
1641937038.651,38.574,35.645,384.766,43.945,48.828
1641937038.655,47.363,48.828,459.473,55.176,100.098
1641937038.659,25.879,41.016,324.707,40.527,81.543
1641937038.663,10.254,37.109,291.016,31.250,50.293
1641937038.667,26.855,39.062,356.934,31.738,32.715
1641937038.671,41.992,32.227,269.531,47.852,30.273
1641937038.675,24.414,21.973,-40.527,42.480,3.418
1641937038.678,14.160,38.574,32.227,17.578,-27.832
1641937038.682,23.438,47.363,393.555,24.414,30.762
1641937038.686,39.551,32.715,315.918,40.527,24.414
1641937038.690,37.598,34.180,300.781,47.852,38.574
1641937038.694,15.137,41.016,398.926,25.391,65.430
1641937038.696,18.066,49.316,283.203,10.742,21.973
1641937038.700,35.645,46.387,134.277,28.320,-21.973
1641937038.704,40.527,46.387,195.312,33.203,21.484
1641937038.708,22.461,50.781,365.234,23.926,37.598
1641937038.712,3.418,45.410,393.555,0.977,24.902
1641937038.716,12.207,40.039,136.230,4.883,11.230
1641937038.720,20.996,40.039,-70.801,27.344,-31.738
1641937038.723,11.230,47.363,230.469,27.344,-13.672
1641937038.727,-4.395,47.363,376.953,15.137,22.461
1641937038.731,5.371,47.363,146.973,7.324,-13.672
1641937038.735,31.250,56.152,105.469,22.949,-41.992
1641937038.739,18.066,62.012,290.039,30.762,-37.598
1641937038.755,-11.230,51.270,249.512,5.859,12.207
1641937038.759,-3.906,42.969,165.039,-9.766,21.484
1641937038.763,13.672,44.922,154.297,7.324,3.906
1641937038.767,15.137,46.387,143.555,24.902,-1.953
1641937038.771,4.883,38.574,218.262,21.484,5.371
1641937038.775,4.395,31.250,15.137,14.648,26.855
1641937038.779,30.762,41.992,34.180,29.297,22.461
1641937038.782,40.527,43.457,292.480,43.945,29.785
1641937038.786,15.137,30.273,248.535,43.945,-5.859
1641937038.790,0.977,18.066,-2.441,28.809,-37.598
1641937038.794,21.973,26.367,72.266,24.414,-22.461
