timestamps,TP9,AF7,AF8,TP10,Right AUX
1641437121.718,8.301,48.828,176.758,161.621,11.230
1641437121.722,-28.809,44.922,119.141,-17.578,18.555
1641437121.726,6.348,43.457,-119.629,9.766,-0.977
1641437121.730,52.246,37.598,12.207,163.086,-24.902
1641437121.734,30.762,32.715,354.980,135.254,-12.695
1641437121.738,-12.207,33.691,102.051,-61.035,-65.918
1641437121.741,-2.441,36.133,-266.602,-77.148,-87.402
1641437121.745,38.574,38.086,-110.840,78.125,0.000
1641437121.749,47.363,39.062,428.223,116.211,66.895
1641437121.753,3.418,37.598,366.699,-80.566,29.297
1641437121.757,-3.906,36.133,44.922,-179.199,-37.598
1641437121.761,49.805,32.715,83.984,-25.879,-11.230
1641437121.765,17.578,30.273,168.945,-56.152,14.648
1641437121.769,0.000,31.738,-127.441,-203.125,-82.520
1641437121.773,44.434,33.203,-63.477,-92.773,-52.246
1641437121.777,74.707,36.133,122.559,80.078,51.758
1641437121.781,39.551,39.551,67.871,16.113,36.133
1641437121.784,-2.930,38.086,-440.430,-137.695,-67.871
1641437121.788,23.438,41.016,-441.895,-99.121,-63.477
1641437121.792,73.730,43.945,105.469,73.242,51.270
1641437121.796,56.641,34.180,147.949,82.520,63.477
1641437121.800,-0.977,23.926,-7.324,-97.656,71.289
1641437121.804,6.348,30.273,3.906,-127.930,72.266
1641437121.809,58.594,41.016,148.438,26.367,104.004
1641437121.813,60.059,39.062,199.707,86.914,151.367
1641437121.817,6.836,34.180,3.906,-72.266,55.176
1641437121.821,2.930,36.133,-46.387,-159.668,21.484
1641437121.825,55.664,37.598,34.668,-23.926,15.137
1641437121.829,74.707,37.598,31.250,88.867,-4.883
1641437121.832,24.414,41.992,-129.395,-30.762,-0.977
1641437121.836,-1.953,44.434,-264.648,-162.598,-36.133
1641437121.840,36.621,32.227,-121.094,-75.684,-27.832
1641437121.844,62.988,26.855,-50.293,70.801,-6.348
1641437121.848,28.320,36.133,-35.645,2.930,-12.695
1641437121.852,-14.648,39.551,-108.887,-180.664,-26.855
1641437121.866,5.371,38.086,-200.684,-141.113,-11.230
1641437121.870,49.805,40.039,-168.945,43.457,-7.324
1641437121.874,39.551,42.480,-42.480,56.152,4.883
1641437121.878,-15.137,36.133,-138.672,-151.855,44.434
1641437121.882,-14.648,29.785,-343.750,-208.496,-3.906
1641437121.886,37.109,28.809,-694.336,-47.363,-65.918
1641437121.889,41.016,32.227,-727.051,24.414,-41.504
1641437121.893,-7.812,29.297,-424.805,-124.512,-23.926
1641437121.897,-21.973,20.508,-566.406,-215.332,-60.547
1641437121.901,23.926,26.855,-562.012,-58.594,-6.348
1641437121.905,55.664,33.691,-249.023,99.609,83.496
1641437121.909,18.066,33.691,-271.973,14.160,23.926
1641437121.911,-8.789,32.227,-615.723,-117.676,-43.457
1641437121.915,25.391,26.855,-725.098,-38.086,-19.043
1641437121.919,64.941,29.297,-364.746,142.090,14.648
1641437121.923,45.410,36.133,-257.812,120.117,14.160
1641437121.927,1.465,34.668,-605.469,-52.246,-31.250
1641437121.931,15.625,30.273,-799.316,-39.062,-38.086
1641437121.934,66.895,29.785,-604.492,142.090,3.906
1641437121.938,60.059,29.297,-343.750,194.336,26.855
1641437121.942,3.418,23.438,-620.605,33.203,32.227
1641437121.946,1.953,22.949,-913.086,-29.297,-19.531
1641437121.950,53.711,29.785,-489.746,121.094,-29.297
1641437121.954,59.082,30.762,-319.336,202.637,-8.301
1641437121.956,3.418,28.809,-576.172,45.410,-58.105
1641437121.960,-20.508,32.227,-636.719,-80.078,-70.801
1641437121.964,21.484,31.738,-461.914,22.949,-52.246
1641437121.968,50.781,24.414,-396.973,148.438,-57.129
1641437121.972,10.254,22.949,-573.242,55.176,-49.316
1641437121.976,-23.926,25.879,-762.207,-102.539,-44.434
1641437121.979,14.648,26.367,-753.906,-41.992,-23.438
1641437121.983,66.406,31.250,-622.070,131.348,-10.254
1641437121.987,46.387,34.180,-720.215,121.582,-72.754
1641437121.991,7.812,38.574,-713.867,-55.664,-88.867
1641437121.995,26.855,41.992,-583.984,-79.102,-33.691
1641437121.999,71.777,40.527,-533.691,81.055,7.324
1641437122.001,65.918,40.039,-426.758,134.766,-5.371
1641437122.005,9.277,36.133,-526.367,-48.828,-41.016
1641437122.009,7.324,36.133,-754.883,-142.578,-44.922
1641437122.013,58.105,36.133,-811.523,6.836,-42.969
1641437122.017,67.383,29.785,-636.719,118.652,2.930
1641437122.021,16.113,26.855,-691.895,-3.418,9.766
1641437122.024,-0.977,29.785,-814.941,-132.324,-43.457
1641437122.028,39.551,38.574,-879.395,-43.457,-15.137
1641437122.032,54.688,43.945,-788.086,99.609,1.953
1641437122.036,20.996,41.504,-421.387,38.574,-36.621
1641437122.040,-8.789,38.086,-564.941,-112.793,-24.902
1641437122.044,13.672,36.133,-752.441,-88.867,-23.926
1641437122.046,59.082,36.133,-576.660,66.406,-28.320
1641437122.050,42.969,33.691,-373.535,81.055,-12.207
1641437122.054,-11.230,29.297,-551.758,-99.121,-64.941
1641437122.058,-0.488,21.973,-717.773,-131.836,-77.148
1641437122.062,47.363,16.602,-502.930,43.457,-83.496
1641437122.066,50.781,23.438,-471.680,124.512,-103.027
1641437122.069,-1.953,27.344,-698.242,-30.273,-57.129
1641437122.073,-10.254,27.832,-975.098,-131.348,-97.168
1641437122.077,38.086,37.109,-791.504,19.531,-100.586
1641437122.081,60.059,40.039,-294.434,146.484,-25.879
1641437122.085,12.695,31.250,-387.207,17.090,-67.871
1641437122.089,-19.531,25.879,-579.590,-109.375,-85.938
1641437122.091,19.531,19.043,-479.004,-22.461,-89.844
1641437122.095,59.082,16.113,-369.629,125.977,-91.309
1641437122.099,36.133,24.414,-363.281,79.102,-50.781
1641437122.103,-3.906,27.344,-500.977,-105.957,-50.781
1641437122.107,18.066,25.879,-534.668,-95.215,-91.797
1641437122.111,67.871,33.203,-426.758,70.312,-31.250
1641437122.114,53.711,34.180,-560.059,71.289,3.906
1641437122.118,-4.395,32.715,-744.629,-138.184,-53.223
1641437122.122,0.977,35.645,-611.328,-199.707,-43.457
1641437122.126,54.199,35.645,-430.176,-19.531,-25.879
1641437122.130,58.594,31.250,-396.973,69.824,-36.133
1641437122.134,4.883,26.855,-415.039,-68.359,-32.227
1641437122.136,-5.859,32.715,-332.520,-156.738,-6.348
1641437122.140,41.992,36.133,-290.039,-24.414,-17.578
1641437122.144,64.941,33.691,-210.938,110.352,-30.762
1641437122.148,24.414,32.227,-228.027,2.441,-31.738
1641437122.152,-6.348,29.785,-396.973,-159.668,-47.363
1641437122.156,24.902,27.832,-616.699,-100.098,-36.621
1641437122.159,65.918,27.832,-671.387,81.055,-17.090
1641437122.163,41.504,26.855,-371.094,86.426,-15.137
1641437122.167,-10.254,25.879,-285.156,-67.383,-5.371
1641437122.171,10.254,24.902,-560.059,-66.406,-31.738
1641437122.175,59.082,23.438,-593.262,105.469,-39.062
1641437122.179,46.387,24.902,-420.410,164.551,21.484
1641437122.183,-4.395,25.879,-484.863,13.672,13.184
1641437122.187,-6.836,28.320,-657.227,-32.715,19.043
1641437122.191,41.016,31.738,-564.941,107.910,28.320
1641437122.195,49.316,32.227,-192.871,180.176,2.930
1641437122.199,1.465,31.250,-146.484,36.621,-2.930
1641437122.203,-18.066,30.273,-384.766,-70.801,-14.648
1641437122.206,22.949,27.344,-376.465,52.246,-8.789
1641437122.210,53.223,32.715,-47.852,191.406,10.742
1641437122.214,21.973,33.203,86.914,116.211,52.734
1641437122.218,-10.742,27.344,-345.703,-20.508,12.207
1641437122.222,11.719,31.738,-494.141,77.637,-37.109
1641437122.226,49.805,41.992,-45.410,275.391,37.598
1641437122.241,27.832,39.551,64.941,259.277,83.496
1641437122.245,-25.391,29.297,-284.180,68.359,43.945
1641437122.249,-12.695,29.785,-474.121,41.016,-11.719
1641437122.253,41.504,34.180,-153.320,208.008,90.820
1641437122.257,53.711,36.133,-8.301,259.766,123.047
1641437122.261,9.277,26.367,-614.258,88.379,15.137
1641437122.264,-12.695,16.602,-845.215,-29.297,-10.254
1641437122.268,28.809,14.648,-407.227,94.727,4.395
1641437122.272,49.805,16.113,-425.781,207.031,9.277
1641437122.276,2.930,25.879,-596.680,70.312,69.824
1641437122.280,-14.648,31.738,-632.324,-63.477,81.543
1641437122.284,19.531,31.738,-627.441,22.461,28.320
1641437122.301,51.758,31.738,-588.867,176.758,20.020
1641437122.305,27.832,33.691,-667.480,109.863,21.484
1641437122.309,-15.625,30.762,-752.930,-53.711,23.926
1641437122.313,8.301,26.855,-683.105,1.465,56.641
1641437122.317,52.246,32.227,-586.426,190.430,68.848
1641437122.321,36.621,34.668,-641.602,224.609,63.965
1641437122.324,-16.602,25.879,-715.332,70.801,34.180
1641437122.328,-15.625,21.484,-547.852,50.781,74.707
1641437122.332,35.156,25.391,-644.531,201.660,95.215
1641437122.336,46.387,26.855,-718.262,263.672,57.617
1641437122.340,-1.465,29.785,-443.359,121.094,62.012
1641437122.344,-8.789,31.250,-530.762,24.414,7.324
1641437122.331,41.504,33.203,-500.488,140.625,31.738
1641437122.335,60.547,34.180,-252.930,248.047,90.820
1641437122.339,11.230,28.809,-250.488,141.113,83.496
1641437122.343,-20.508,22.461,-501.465,-14.160,53.711
1641437122.347,14.160,17.578,-569.824,24.414,42.480
1641437122.351,55.664,12.695,-442.383,150.879,80.566
1641437122.354,23.926,19.531,-433.594,66.406,74.219
1641437122.358,-16.602,30.762,-702.637,-151.367,8.301
1641437122.362,14.160,34.668,-766.113,-144.531,4.395
1641437122.366,53.223,34.180,-407.715,35.156,36.133
1641437122.370,37.109,33.691,-198.242,69.336,41.016
1641437122.374,-16.113,27.832,-485.352,-121.094,-0.977
1641437122.377,-13.672,24.902,-975.098,-189.453,-44.434
1641437122.381,38.086,32.227,-682.129,-31.738,-31.250
1641437122.385,50.781,34.668,-198.730,52.734,19.531
1641437122.389,1.465,31.738,-309.570,-85.938,36.621
1641437122.393,-14.160,29.297,-479.492,-203.613,-3.418
1641437122.397,29.785,21.484,-427.734,-76.660,11.719
1641437122.400,56.152,21.973,-369.141,69.824,14.160
1641437122.404,16.602,25.391,-562.012,-34.180,-38.574
1641437122.408,-20.508,23.438,-717.285,-178.223,-64.453
1641437122.412,12.695,29.297,-480.957,-97.656,-58.105
1641437122.416,52.734,32.227,-298.340,74.707,26.367
1641437122.420,30.762,32.715,-383.301,50.293,-1.465
1641437122.421,-11.230,36.621,-475.098,-125.488,-62.500
1641437122.425,5.371,37.598,-397.949,-119.629,-17.090
1641437122.429,53.223,33.691,-330.078,31.250,-14.160
1641437122.433,45.898,23.926,-301.758,45.898,-18.555
1641437122.437,-4.395,18.555,-351.562,-117.188,-8.789
1641437122.441,-3.418,23.926,-565.430,-192.383,-30.762
1641437122.444,45.410,29.297,-646.973,-63.477,-28.809
1641437122.448,60.547,32.227,-671.875,18.555,-1.953
1641437122.452,10.742,32.227,-647.949,-131.348,-28.320
1641437122.456,-11.230,34.180,-606.445,-248.047,-63.477
1641437122.460,30.273,33.203,-712.402,-149.414,-38.086
1641437122.464,54.199,29.297,-577.148,-21.484,10.254
1641437122.482,7.812,26.367,-515.625,-99.609,-8.789
1641437122.486,-30.273,29.785,-690.430,-244.629,-62.012
1641437122.490,-1.465,30.273,-857.910,-183.594,-79.102
1641437122.494,41.504,27.344,-826.172,-6.348,-54.688
1641437122.498,18.555,31.738,-555.664,-1.465,-32.715
1641437122.502,-34.668,31.738,-759.766,-173.828,-64.453
1641437122.505,-19.531,22.949,-1000.000,-174.805,-87.891
1641437122.509,31.738,17.578,-844.727,22.949,-64.453
1641437122.513,30.762,19.531,-530.762,115.234,-19.531
1641437122.517,-20.020,21.973,-604.492,-3.906,-33.691
1641437122.521,-27.832,22.461,-815.918,-48.340,-74.219
1641437122.525,15.625,28.320,-692.871,125.977,-55.664
1641437122.512,35.156,34.180,-450.195,268.066,-5.859
1641437122.516,-17.090,32.715,-509.277,156.250,-20.508
1641437122.520,-47.363,30.273,-703.125,30.273,-44.434
1641437122.524,-4.395,30.762,-645.996,137.207,-45.898
1641437122.528,31.738,29.297,-479.004,283.203,-18.066
1641437122.532,4.883,33.203,-526.855,221.191,-20.996
1641437122.535,-23.926,33.203,-759.766,45.898,-77.637
1641437122.539,7.812,34.180,-641.113,78.125,-14.648
1641437122.543,57.129,37.109,-360.840,261.719,59.082
1641437122.547,41.016,36.621,-323.730,284.668,68.848
1641437122.551,-8.301,33.691,-802.246,123.535,20.020
1641437122.555,-2.930,34.180,-863.281,99.609,-22.461
1641437122.571,47.363,38.086,-402.832,270.020,44.922
1641437122.575,75.195,40.039,-269.043,358.398,66.406
1641437122.579,25.879,39.062,-364.746,238.770,27.344
1641437122.583,-25.391,27.832,-425.293,147.949,17.090
1641437122.587,-0.977,23.438,-459.473,289.551,-20.996
1641437122.591,30.762,21.484,-461.914,446.777,-4.395
1641437122.594,-4.883,19.043,-599.121,357.422,60.547
1641437122.598,-40.039,18.555,-743.164,226.562,89.355
1641437122.602,1.465,21.973,-541.504,291.016,99.609
1641437122.606,45.410,16.602,-628.906,420.410,75.195
1641437122.610,19.531,9.766,-783.691,338.867,85.449
1641437122.614,-10.254,19.531,-586.914,143.066,80.078
1641437122.616,19.531,27.832,-571.289,147.461,40.039
1641437122.620,63.477,30.273,-437.012,294.922,75.195
1641437122.624,54.688,31.738,-195.801,308.594,123.047
1641437122.628,14.648,24.414,-275.879,115.234,55.176
1641437122.632,12.695,19.043,-449.219,45.898,8.789
1641437122.636,60.059,23.926,-484.863,204.590,25.391
1641437122.639,74.707,25.879,-362.305,273.926,55.176
1641437122.643,25.879,24.902,-293.945,106.934,84.473
1641437122.647,15.625,22.461,-494.141,-16.602,88.379
1641437122.651,56.641,25.391,-600.586,87.891,76.660
1641437122.655,81.543,33.691,-258.789,212.891,150.879
1641437122.659,49.805,33.691,-154.785,104.004,149.902
1641437122.661,13.672,27.344,-540.039,-54.688,25.879
1641437122.665,44.922,28.320,-862.793,-16.113,21.973
1641437122.669,86.426,35.156,-555.176,119.141,68.359
1641437122.673,61.523,33.691,-317.383,103.516,64.453
1641437122.677,15.625,27.832,-562.012,-70.312,20.508
1641437122.681,28.320,24.902,-799.805,-88.867,-8.301
1641437122.684,71.777,25.391,-691.406,64.941,44.434
1641437122.688,72.754,28.809,-458.008,114.258,84.473
1641437122.692,26.855,23.926,-725.098,-45.898,27.344
1641437122.696,20.020,23.926,-915.527,-106.934,17.090
1641437122.700,64.941,29.785,-551.758,59.570,108.887
1641437122.704,80.078,26.367,-434.570,159.180,68.359
1641437122.737,27.344,27.344,-727.539,20.996,24.414
1641437122.741,-3.418,29.785,-850.098,-103.516,49.316
1641437122.745,38.574,30.273,-635.254,11.230,78.613
1641437122.749,71.289,30.273,-497.070,169.922,51.270
1641437122.753,33.203,28.809,-563.965,100.586,19.043
1641437122.757,0.488,22.461,-772.949,-44.434,17.090
1641437122.760,28.809,20.020,-761.719,22.461,35.156
1641437122.764,68.359,28.320,-572.754,190.918,42.480
1641437122.768,53.711,32.715,-701.660,189.941,27.344
1641437122.772,3.418,32.227,-666.992,28.809,62.988
1641437122.776,8.301,34.180,-517.090,11.230,60.059
1641437122.780,58.105,36.133,-445.801,179.199,41.504
1641437122.751,61.035,39.551,-298.340,240.234,64.941
1641437122.755,0.488,40.039,-274.414,63.965,59.082
1641437122.759,-11.230,31.250,-500.488,-20.996,24.902
1641437122.763,38.574,30.273,-551.758,123.047,41.504
1641437122.767,58.594,36.133,-293.945,234.863,67.871
1641437122.771,14.160,33.691,-345.703,116.699,39.551
1641437122.774,-13.672,31.738,-615.723,-23.926,39.551
1641437122.778,25.391,32.227,-603.516,52.246,52.734
1641437122.782,56.641,33.203,-295.898,202.637,48.340
1641437122.786,20.996,34.180,-156.250,159.180,29.297
1641437122.790,-21.973,36.621,-318.359,8.301,-13.184
1641437122.794,1.465,38.086,-408.203,35.645,-13.672
1641437122.796,51.270,40.039,-151.367,198.730,29.785
1641437122.800,39.062,33.691,146.484,220.703,87.402
1641437122.804,-10.254,25.391,14.160,44.922,52.246
1641437122.808,-5.371,26.855,-500.977,-6.836,-46.875
1641437122.812,39.551,32.715,-413.086,144.043,-9.277
1641437122.816,48.340,34.180,-39.551,197.754,16.602
1641437122.819,-1.953,30.762,-232.910,30.762,-4.395
1641437122.823,-16.602,28.809,-706.055,-84.961,-31.738
1641437122.827,31.738,29.297,-562.988,35.645,-22.461
1641437122.831,55.176,35.645,0.000,149.414,67.383
1641437122.835,6.348,35.645,-132.812,30.762,63.477
1641437122.839,-15.625,30.273,-374.023,-109.863,-20.996
1641437122.856,22.461,31.250,-257.324,-49.316,-20.508
1641437122.860,54.199,30.762,-78.613,94.727,17.578
1641437122.864,30.273,29.297,-201.660,43.945,16.602
1641437122.868,-12.695,30.273,-430.664,-135.742,13.672
1641437122.872,12.207,33.203,-356.445,-112.793,56.152
1641437122.876,51.758,27.344,-288.574,55.176,85.938
1641437122.879,40.039,20.996,-505.371,83.984,45.410
1641437122.883,3.418,26.367,-668.457,-96.680,-4.395
1641437122.887,2.930,31.738,-547.852,-159.180,20.020
1641437122.891,45.410,29.785,-311.035,4.883,54.199
1641437122.895,51.758,25.879,-220.703,90.332,58.105
1641437122.899,-2.930,20.020,-273.926,-51.758,66.895
1641437122.886,-17.090,21.484,-336.914,-168.945,58.594
1641437122.890,23.926,27.832,-425.293,-54.199,67.383
1641437122.894,51.758,27.344,-357.422,115.234,69.824
1641437122.898,14.160,26.367,-297.363,10.742,56.641
1641437122.902,-26.855,26.855,-471.680,-161.133,32.715
1641437122.906,8.789,28.809,-682.617,-63.965,10.742
1641437122.909,57.617,27.344,-629.883,126.465,3.906
1641437122.913,44.434,29.785,-430.664,149.902,2.930
1641437122.917,0.000,30.762,-481.445,16.602,-0.488
1641437122.921,13.184,21.484,-708.008,29.297,-15.625
1641437122.925,60.547,17.578,-777.344,218.262,6.836
1641437122.929,54.688,27.832,-526.855,294.922,15.137
1641437122.932,3.418,32.227,-374.023,150.879,65.918
1641437122.936,-3.418,26.367,-532.715,85.449,91.797
1641437122.940,38.086,23.926,-501.953,231.445,68.848
1641437122.944,54.199,26.367,-177.734,322.754,86.426
1641437122.948,7.324,25.391,-172.852,176.758,83.496
1641437122.952,-23.438,25.391,-614.258,43.457,34.180
1641437122.955,15.137,20.996,-713.379,130.371,48.828
1641437122.959,49.316,19.531,-184.082,262.207,133.789
1641437122.963,17.578,26.367,-97.168,182.129,162.598
1641437122.967,-12.207,27.832,-410.645,15.625,112.305
1641437122.971,16.113,30.273,-460.449,50.781,72.754
1641437122.975,53.711,33.691,-214.844,220.215,122.559
1641437122.992,40.039,32.227,-113.281,233.887,162.598
1641437122.996,-9.766,26.855,-393.555,51.758,95.703
1641437123.000,1.953,24.902,-553.711,29.297,48.340
1641437123.004,62.500,31.738,-233.398,222.656,119.629
1641437123.008,71.289,27.344,-47.852,293.945,88.867
1641437123.012,16.602,16.602,-560.059,123.047,-6.348
1641437123.015,5.371,18.066,-702.148,20.508,-2.441
1641437123.019,62.500,20.020,-222.656,165.527,47.852
1641437123.023,94.727,29.297,-144.043,298.340,59.082
1641437123.027,36.621,41.992,-260.742,155.762,4.395
1641437123.031,-13.184,39.551,-287.109,-0.488,8.789
1641437123.035,20.508,37.598,-268.066,84.473,50.293
1641437123.036,62.500,39.062,-185.547,235.840,58.594
1641437123.040,29.785,35.156,-155.762,145.020,98.633
1641437123.044,-8.301,34.668,-250.000,-65.918,92.285
1641437123.048,10.254,35.156,-319.336,-56.152,66.895
1641437123.052,32.715,30.762,-291.992,83.008,120.117
1641437123.056,14.648,25.391,-295.410,74.707,158.203
1641437123.059,-24.902,27.344,-459.473,-103.027,116.699
1641437123.063,-12.695,28.809,-401.367,-129.883,79.102
1641437123.067,41.992,28.809,-362.305,33.691,71.777
1641437123.071,53.223,28.809,-439.453,116.211,55.176
1641437123.075,4.395,33.203,-190.430,2.441,90.332
1641437123.079,-10.254,37.109,-172.363,-66.406,99.609
1641437123.081,30.762,35.156,-269.531,76.172,27.832
1641437123.085,53.711,34.668,-46.387,229.004,24.414
1641437123.089,9.766,30.273,25.391,141.113,36.621
1641437123.093,-30.762,26.855,-271.484,6.348,-2.930
1641437123.097,9.766,31.738,-252.930,98.633,26.855
1641437123.101,59.082,30.273,-34.180,265.137,66.406
1641437123.104,34.668,33.203,-16.602,223.633,89.844
1641437123.108,-4.395,36.621,-239.746,47.852,88.867
1641437123.112,13.184,32.227,-701.660,44.922,21.484
1641437123.116,61.523,37.598,-511.230,186.035,40.527
1641437123.120,51.758,37.109,-17.578,192.871,107.422
1641437123.124,-1.953,30.762,-263.672,-4.883,86.426
1641437123.126,-1.953,31.250,-535.645,-77.148,40.039
1641437123.130,43.457,23.926,-323.242,87.891,62.988
1641437123.134,50.781,23.438,-103.516,181.641,119.629
1641437123.138,-3.418,24.414,-319.824,50.293,74.219
1641437123.142,-19.043,27.832,-514.160,-63.965,42.969
1641437123.146,28.320,29.785,-450.684,45.410,79.102
1641437123.149,51.270,25.879,-291.992,202.637,119.141
1641437123.153,8.301,24.414,-472.656,125.000,106.445
1641437123.157,-20.996,22.461,-725.586,-21.484,72.266
1641437123.161,10.742,26.855,-387.695,36.621,112.793
1641437123.165,50.293,30.273,-248.535,188.965,142.578
1641437123.169,32.715,23.438,-346.680,172.363,167.480
1641437123.171,-10.742,18.066,-354.004,-4.883,136.230
1641437123.175,11.230,26.367,-319.824,-30.762,75.195
1641437123.179,61.035,30.273,-296.875,100.098,56.152
1641437123.183,52.246,30.273,-210.938,127.930,129.395
1641437123.187,3.906,29.785,-269.531,-40.039,114.746
1641437123.191,-4.395,31.738,-533.691,-114.746,75.195
1641437123.194,40.039,33.203,-593.750,17.578,79.590
1641437123.198,59.082,29.785,-571.777,84.473,55.176
1641437123.202,10.254,29.785,-437.500,-44.922,64.941
1641437123.206,-17.090,23.926,-347.168,-152.344,71.777
1641437123.210,21.484,18.066,-460.449,-47.852,50.781
1641437123.214,49.316,23.926,-300.293,103.027,52.734
1641437123.218,21.973,27.832,-240.234,33.203,66.406
1641437123.222,-5.859,28.320,-472.656,-107.910,14.648
1641437123.226,15.625,29.297,-599.609,-39.551,-22.949
1641437123.230,53.711,25.391,-531.250,139.648,7.812
1641437123.234,38.574,22.949,-253.906,153.809,70.312
1641437123.238,-1.953,24.902,-496.094,-19.043,31.738
1641437123.241,5.371,22.949,-936.523,-37.598,-2.930
1641437123.245,47.852,22.461,-765.625,138.672,48.828
1641437123.249,56.152,30.273,-302.734,220.703,109.863
1641437123.253,6.348,26.855,-394.531,87.891,75.684
1641437123.257,-3.906,17.578,-667.969,-2.930,19.043
1641437123.261,36.621,28.809,-524.414,125.000,101.074
1641437123.262,47.852,34.180,-304.688,234.863,166.016
1641437123.266,7.324,33.203,-479.004,119.141,119.141
1641437123.270,-20.020,35.156,-699.707,-9.766,79.102
1641437123.274,16.602,34.668,-719.238,73.730,92.773
1641437123.278,45.410,35.645,-636.719,208.496,102.051
1641437123.282,9.766,26.855,-742.188,161.621,67.383
1641437123.285,-24.414,25.879,-974.609,19.531,-12.695
1641437123.289,-3.418,35.645,-979.004,35.645,-32.715
1641437123.293,25.879,36.621,-915.527,182.617,59.082
1641437123.297,-0.488,33.203,-901.367,189.453,113.281
1641437123.301,-51.270,30.762,-972.656,55.664,74.707
1641437123.305,-46.875,33.203,-970.703,41.992,87.891
1641437123.321,-9.766,36.133,-967.285,191.406,167.480
1641437123.325,-1.465,38.086,-969.727,255.859,138.672
1641437123.329,-47.363,41.504,-969.238,98.633,84.473
1641437123.333,-71.777,41.016,-969.238,-3.418,77.148
1641437123.337,-29.785,41.992,-969.238,81.055,76.172
1641437123.341,-8.301,36.133,-969.238,161.621,72.754
1641437123.344,-51.758,35.645,-969.238,26.367,52.734
1641437123.348,-70.312,43.945,-969.238,-121.094,51.270
1641437123.352,-29.785,50.781,-969.238,-62.988,53.223
1641437123.356,8.301,58.594,-969.238,53.711,55.176
1641437123.360,-15.625,54.199,-970.215,-9.766,89.844
1641437123.364,-62.012,44.434,-963.379,-175.781,102.051
1641437123.366,-41.992,40.527,-978.516,-125.000,87.891
1641437123.370,5.371,34.668,-929.688,81.055,93.750
1641437123.374,1.465,34.180,-762.207,165.527,150.391
1641437123.378,-45.410,34.180,-783.203,43.457,156.738
1641437123.382,-43.457,30.762,-915.527,8.301,109.863
1641437123.386,6.348,32.715,-948.242,196.777,123.535
1641437123.389,15.137,34.668,-812.500,292.969,153.809
1641437123.393,-35.645,30.273,-611.816,163.086,143.555
1641437123.397,-50.293,24.902,-680.176,81.543,137.207
1641437123.401,-10.742,15.625,-985.352,193.359,127.930
1641437123.405,11.230,13.672,-734.375,313.965,170.898
1641437123.409,-27.344,19.043,-365.723,236.328,233.398
1641437123.411,-62.988,16.113,-686.523,90.820,169.922
1641437123.415,-41.504,19.531,-732.422,136.719,165.527
1641437123.419,-6.348,24.414,-479.004,314.941,188.965
1641437123.423,-22.949,22.461,-434.570,331.055,200.684
1641437123.427,-72.754,13.672,-670.410,124.023,178.223
1641437123.431,-71.289,8.301,-937.988,107.910,107.422
1641437123.434,-21.484,13.672,-798.828,303.711,142.090
1641437123.438,-18.555,16.602,-540.039,342.285,216.797
1641437123.442,-74.707,11.719,-741.211,152.344,203.125
1641437123.446,-90.332,16.602,-1000.000,39.551,140.625
1641437123.450,-50.293,27.344,-796.875,128.906,194.824
1641437123.454,-28.809,25.391,-570.801,177.734,321.289
1641437123.456,-60.059,23.926,-729.004,48.828,296.875
1641437123.460,-74.707,24.414,-843.750,-66.406,199.707
1641437123.464,-37.598,21.973,-641.602,40.039,206.055
1641437123.468,-0.977,21.484,-509.766,208.496,224.609
1641437123.472,-29.297,20.508,-628.418,120.605,242.188
1641437123.476,-56.152,15.137,-874.512,-56.152,227.051
1641437123.479,-18.555,13.672,-842.773,-38.574,201.660
1641437123.483,26.855,22.949,-603.516,84.961,235.352
1641437123.487,17.578,25.879,-792.480,35.645,217.285
1641437123.491,-16.602,20.996,-780.762,-192.383,205.078
1641437123.495,-1.953,21.973,-579.102,-240.234,189.941
1641437123.499,55.176,22.949,-513.184,-86.914,170.898
1641437123.501,67.383,19.043,-373.535,-75.684,153.320
1641437123.505,22.949,23.438,-342.285,-115.723,125.000
1641437123.509,13.672,20.508,-512.695,-104.492,106.934
1641437123.513,69.824,14.160,-668.945,-43.457,61.523
1641437123.517,100.586,16.602,-460.449,63.477,82.520
1641437123.521,58.594,19.531,-431.641,-43.457,81.055
1641437123.524,37.598,23.438,-592.285,-184.570,0.000
1641437123.528,71.777,23.926,-703.613,-141.113,-38.574
1641437123.532,109.375,26.855,-593.262,11.719,-20.508
1641437123.536,88.867,31.250,-185.547,-16.113,33.691
1641437123.540,44.434,29.785,-292.480,-195.312,7.324
1641437123.544,62.988,30.273,-467.285,-185.059,-14.648
1641437123.547,106.934,26.367,-294.434,-14.648,28.320
1641437123.551,98.633,26.855,-106.934,14.648,48.340
1641437123.555,54.199,27.344,-353.027,-149.414,-12.695
1641437123.559,60.059,28.320,-541.504,-183.594,4.883
1641437123.563,110.840,28.320,-337.402,-26.367,64.941
1641437123.567,122.070,27.344,-292.480,32.715,50.781
1641437123.570,71.777,28.320,-475.586,-125.488,69.824
1641437123.574,50.781,26.367,-888.184,-238.770,20.508
1641437123.578,93.262,24.414,-736.328,-125.977,-29.785
1641437123.582,118.652,21.484,-152.832,6.348,58.594
1641437123.586,77.637,19.531,-293.945,-102.539,34.180
1641437123.590,35.645,21.484,-551.758,-264.648,-45.898
1641437123.591,69.336,27.344,-393.066,-209.961,-26.367
1641437123.595,116.211,28.320,-204.102,-79.102,21.973
1641437123.599,85.938,28.809,-277.344,-149.902,38.086
1641437123.603,45.410,29.785,-502.441,-357.910,-24.902
1641437123.607,61.523,26.367,-535.156,-371.582,-41.504
1641437123.611,105.469,23.926,-450.195,-235.352,-7.324
1641437123.614,99.121,23.438,-590.332,-233.887,-25.391
1641437123.618,46.387,20.508,-852.051,-410.645,-60.547
1641437123.622,30.762,18.555,-764.160,-487.793,-54.199
1641437123.626,67.871,19.531,-502.930,-346.191,-18.555
1641437123.630,80.566,22.949,-449.219,-249.023,-33.691
1641437123.634,27.344,27.832,-520.508,-363.770,-56.641
1641437123.636,1.465,26.855,-575.195,-469.727,-88.867
1641437123.640,35.156,24.414,-603.516,-351.074,-76.660
1641437123.644,58.594,23.438,-456.055,-161.621,-17.578
1641437123.648,15.625,25.879,-418.945,-195.312,-41.992
1641437123.652,-25.391,18.066,-544.922,-316.406,-85.938
1641437123.656,-0.977,14.648,-681.152,-239.258,-59.082
1641437123.659,38.086,20.996,-827.148,-49.316,-69.336
1641437123.663,26.367,29.785,-579.102,-0.977,-83.008
1641437123.667,-4.883,31.738,-428.711,-108.398,-69.824
1641437123.671,-7.324,16.602,-615.234,-91.309,-92.773
1641437123.675,19.531,11.230,-468.262,95.215,-60.547
1641437123.679,32.227,16.602,-303.223,201.660,-23.438
1641437123.683,-10.254,20.020,-379.395,104.004,-52.246
1641437123.687,-21.484,16.113,-595.215,58.594,-131.348
1641437123.691,21.973,9.766,-495.117,218.262,-108.398
1641437123.695,41.992,16.113,-69.336,341.309,-14.160
1641437123.699,5.371,24.902,-105.469,232.422,-37.598
1641437123.703,-30.273,20.020,-602.539,120.117,-46.875
1641437123.706,-2.441,20.996,-651.367,210.449,7.812
1641437123.710,36.621,27.832,-57.617,356.934,28.809
1641437123.714,12.695,25.391,28.809,310.059,58.594
1641437123.718,-24.414,21.484,-256.348,173.828,54.199
1641437123.722,-6.836,18.555,-326.172,227.051,-6.836
1641437123.726,38.574,17.090,-73.242,410.156,49.805
1641437123.742,23.926,23.438,-13.672,442.871,93.750
1641437123.746,-31.738,31.250,-201.660,276.855,67.383
1641437123.750,-19.531,32.227,-282.715,249.512,80.566
1641437123.754,29.297,27.832,-107.422,427.246,103.516
1641437123.758,24.414,22.949,93.750,499.023,150.879
1641437123.762,-30.762,19.531,-409.180,342.773,96.680
1641437123.765,-39.551,24.414,-621.582,257.812,60.059
1641437123.769,8.789,27.832,-96.191,417.969,114.746
1641437123.773,34.180,24.902,9.766,534.668,123.047
1641437123.777,-10.254,29.297,-83.008,389.160,96.191
1641437123.781,-42.969,36.621,-46.875,266.602,136.719
1641437123.785,-10.742,32.227,-32.227,412.109,166.016
1641437123.787,14.160,25.879,55.176,577.148,194.824
1641437123.791,-20.996,26.855,91.309,509.766,197.266
1641437123.795,-60.547,28.809,-39.062,370.605,153.809
1641437123.799,-46.875,22.949,-103.027,390.137,179.688
1641437123.803,-2.441,20.508,-39.551,541.504,249.023
1641437123.807,-2.441,25.879,-124.023,561.523,253.418
1641437123.810,-50.781,33.203,-309.082,386.230,173.828
1641437123.814,-54.199,34.668,-184.082,321.777,226.074
1641437123.818,-12.207,28.809,-251.465,422.852,258.301
1641437123.822,-5.371,27.344,-475.586,411.621,225.586
1641437123.826,-53.223,28.809,-269.043,260.254,259.277
1641437123.830,-71.777,24.902,-271.484,244.141,244.629
1641437123.831,-20.020,27.832,-312.012,353.516,280.273
1641437123.835,27.344,29.297,-112.305,427.246,359.863
1641437123.839,-15.625,26.855,-72.754,323.242,353.027
1641437123.843,-41.992,25.391,-306.641,208.984,345.215
1641437123.847,-6.348,29.785,-507.812,308.105,333.496
1641437123.851,27.832,33.691,-426.758,405.762,335.938
1641437123.854,6.348,28.809,-350.098,320.801,338.867
1641437123.858,-47.852,27.344,-555.176,183.105,273.926
1641437123.862,-33.203,27.344,-964.844,222.656,241.211
1641437123.866,15.137,29.297,-743.164,386.230,291.504
1641437123.870,16.113,29.297,-266.113,430.664,324.707
1641437123.874,-22.949,34.180,-469.238,272.949,295.410
1641437123.877,-24.902,33.203,-570.801,153.320,259.766
1641437123.881,43.457,29.297,-290.527,301.270,276.855
1641437123.885,56.641,34.180,-126.465,427.734,291.504
1641437123.889,-7.812,33.203,-378.906,260.742,249.512
1641437123.893,-41.504,30.273,-623.535,142.578,222.168
1641437123.897,-13.184,22.461,-711.426,291.992,237.305
1641437123.900,26.367,22.949,-547.852,468.262,301.758
1641437123.904,-12.695,24.902,-618.164,398.926,283.203
1641437123.908,-16.113,20.996,-970.215,251.953,190.430
1641437123.912,36.621,29.785,-750.000,304.688,227.539
1641437123.916,56.641,36.133,-587.402,447.266,298.340
1641437123.920,28.809,30.273,-805.176,432.617,279.297
1641437123.922,-15.137,30.273,-946.777,248.535,271.484
1641437123.926,-9.277,28.809,-863.281,171.387,299.805
1641437123.930,35.645,27.832,-741.699,249.023,304.199
1641437123.934,51.758,28.809,-688.477,253.906,313.477
1641437123.938,4.883,23.926,-777.344,55.176,291.504
1641437123.942,-7.812,21.484,-916.992,-32.715,247.559
1641437123.945,32.715,22.949,-921.387,76.660,241.699
1641437123.949,57.617,24.414,-939.941,57.129,230.469
1641437123.953,27.832,27.832,-862.305,-119.629,236.328
1641437123.957,12.207,30.273,-740.723,-203.613,245.117
1641437123.961,41.016,27.344,-782.715,-161.621,216.309
1641437123.965,55.664,29.297,-597.168,-101.562,216.797
1641437123.982,35.156,33.203,-425.781,-222.656,252.930
1641437123.986,-16.602,23.926,-621.582,-430.664,208.008
1641437123.990,8.789,14.648,-804.199,-383.789,179.688
1641437123.994,66.895,20.020,-658.203,-207.031,179.199
1641437123.998,55.176,28.320,-449.219,-211.914,164.551
1641437124.002,22.949,27.344,-665.039,-393.555,186.035
1641437124.005,26.367,26.367,-929.199,-458.984,143.066
1641437124.009,68.848,30.273,-970.215,-322.754,95.215
1641437124.013,86.426,32.715,-770.996,-267.090,115.723
1641437124.017,47.852,32.715,-722.656,-400.879,116.211
1641437124.021,33.691,25.879,-956.055,-492.188,60.547
1641437124.025,76.172,22.949,-914.062,-367.188,57.617
1641437124.012,99.609,24.902,-619.141,-232.910,103.027
1641437124.016,55.664,26.855,-664.062,-318.359,60.547
1641437124.020,26.855,35.156,-935.547,-417.969,18.066
1641437124.024,61.523,37.598,-930.176,-311.523,18.066
1641437124.028,89.844,31.738,-791.016,-150.391,67.871
1641437124.032,61.035,28.809,-826.660,-174.316,83.984
1641437124.035,21.484,28.809,-979.004,-322.754,24.902
1641437124.039,40.039,23.438,-906.738,-307.617,27.344
1641437124.043,90.332,19.043,-689.453,-151.367,70.801
1641437124.047,86.426,22.949,-718.750,-118.164,60.059
1641437124.051,42.480,23.926,-971.191,-233.887,2.441
1641437124.055,46.387,31.250,-933.594,-248.535,24.902
1641437124.071,95.703,42.969,-676.270,-99.609,101.074
1641437124.075,122.070,38.574,-666.016,-10.742,98.633
1641437124.079,71.289,25.879,-830.566,-124.512,18.066
1641437124.083,25.391,20.996,-853.516,-231.445,-2.441
1641437124.087,61.523,20.020,-839.355,-125.977,35.645
1641437124.091,96.191,18.555,-893.066,8.301,34.668
1641437124.094,53.223,17.090,-982.422,-67.383,2.930
1641437124.098,9.277,13.672,-957.031,-188.965,-49.316
1641437124.102,41.504,18.066,-761.719,-127.930,-24.902
1641437124.106,71.777,24.902,-824.707,3.906,-17.090
1641437124.110,45.410,33.203,-899.414,-13.672,-37.109
1641437124.114,9.277,39.551,-778.809,-142.578,-39.062
1641437124.117,20.508,36.621,-809.082,-126.465,-41.504
1641437124.121,58.594,35.645,-717.773,44.922,-27.832
1641437124.125,55.664,36.621,-513.672,115.723,-18.555
1641437124.129,7.812,33.691,-509.277,-36.621,-27.832
1641437124.133,-3.906,31.738,-660.156,-127.930,-38.574
1641437124.137,34.668,30.273,-752.930,-17.090,-44.922
1641437124.140,43.945,30.762,-598.145,79.590,-17.578
1641437124.144,-4.883,30.273,-533.691,-56.152,-34.180
1641437124.148,-21.484,28.320,-766.113,-232.422,-101.562
1641437124.152,17.090,30.273,-991.699,-164.551,-163.574
1641437124.156,46.875,36.621,-858.887,4.395,-166.016
1641437124.160,17.578,35.156,-491.699,-77.637,-67.383
1641437124.161,-16.602,29.785,-650.879,-265.625,-51.758
1641437124.165,15.625,28.320,-774.414,-219.238,-119.141
1641437124.169,55.176,26.367,-450.684,-57.617,-94.238
1641437124.173,40.039,21.484,-311.523,-72.754,-51.270
1641437124.177,9.277,23.438,-613.770,-246.094,-92.773
1641437124.181,29.785,26.367,-838.379,-276.855,-121.094
1641437124.184,73.242,25.391,-642.090,-123.047,-104.492
1641437124.188,72.754,24.414,-397.461,-76.660,-71.777
1641437124.192,33.203,24.414,-507.324,-240.234,-78.613
1641437124.196,26.855,28.809,-689.941,-293.457,-135.742
1641437124.200,69.824,34.180,-477.051,-119.141,-142.090
1641437124.204,89.355,31.738,-269.531,21.484,-98.633
1641437124.207,40.039,21.973,-635.254,-87.402,-72.266
1641437124.211,21.484,19.043,-951.660,-190.430,-93.750
1641437124.215,63.477,27.832,-540.527,-58.594,-48.340
1641437124.219,91.309,30.273,-267.578,125.977,-50.781
1641437124.223,64.453,29.297,-325.684,85.449,-87.891
1641437124.227,24.414,31.250,-426.270,-59.570,-62.012
1641437124.230,45.410,31.250,-463.867,7.812,-48.828
1641437124.234,84.961,29.297,-332.031,173.340,-51.270
1641437124.238,70.312,30.273,-217.773,200.684,-72.266
1641437124.242,23.438,29.297,-220.215,56.152,-104.980
1641437124.246,24.414,30.273,-185.059,44.434,-124.023
1641437124.250,64.453,29.785,-187.012,225.098,-86.914
1641437124.267,68.359,21.973,-341.797,303.223,-49.316
1641437124.271,7.324,23.926,-217.285,159.668,-29.297
1641437124.275,-15.625,28.809,-166.992,49.316,-70.801
1641437124.279,34.668,27.344,-329.102,149.902,-79.102
1641437124.283,54.688,29.785,-126.465,247.559,15.625
1641437124.287,-0.488,30.762,-120.605,101.562,12.207
1641437124.290,-33.203,28.809,-312.012,-66.895,-34.180
1641437124.294,-2.930,23.926,-418.457,-39.551,-30.762
1641437124.298,26.855,21.484,-551.270,80.566,-38.574
1641437124.302,2.441,26.855,-203.613,25.879,-1.953
1641437124.306,-42.480,24.902,-187.988,-189.453,-1.953
1641437124.310,-30.273,20.996,-410.645,-249.512,-52.734
1641437124.317,25.879,23.926,-270.996,-132.812,-42.969
1641437124.321,20.996,28.320,-123.535,-120.117,-21.973
1641437124.325,-26.855,29.297,-349.609,-333.496,-59.082
1641437124.329,-9.277,28.809,-577.637,-446.289,-117.676
1641437124.333,48.828,29.297,-460.938,-333.008,-136.719
1641437124.337,64.941,27.344,-485.840,-298.340,-119.629
1641437124.340,20.996,26.367,-745.117,-457.520,-125.488
1641437124.344,13.184,29.297,-850.586,-596.191,-137.695
1641437124.348,61.523,22.949,-767.578,-544.922,-180.176
1641437124.352,87.891,26.855,-653.809,-395.020,-216.309
1641437124.356,55.664,36.621,-728.516,-432.617,-212.891
1641437124.360,24.902,28.809,-969.727,-551.270,-227.539
1641437124.356,53.711,27.344,-949.219,-465.820,-215.820
1641437124.360,100.586,31.738,-717.285,-260.742,-152.832
1641437124.364,100.098,32.715,-749.023,-237.793,-150.391
1641437124.368,58.594,28.320,-974.121,-400.879,-244.141
1641437124.372,63.965,27.832,-978.516,-379.395,-290.039
1641437124.376,116.211,26.367,-924.805,-175.781,-218.262
1641437124.379,108.887,19.043,-914.062,-79.102,-201.660
1641437124.383,49.316,20.996,-965.820,-206.543,-220.215
1641437124.387,49.316,29.297,-978.027,-264.648,-195.801
1641437124.391,97.168,36.621,-854.980,-64.453,-203.613
1641437124.395,100.098,37.109,-826.660,84.473,-185.547
1641437124.399,50.781,32.715,-967.773,-22.461,-214.355
1641437124.401,32.227,31.250,-981.445,-110.352,-277.832
1641437124.405,70.312,33.203,-883.789,16.602,-252.930
1641437124.409,96.191,38.086,-613.770,173.828,-194.336
1641437124.413,55.176,39.551,-511.230,147.461,-142.578
1641437124.417,10.742,35.156,-619.629,14.648,-155.762
1641437124.421,31.738,24.414,-711.914,48.340,-155.762
1641437124.424,67.383,21.973,-629.395,212.891,-131.348
1641437124.428,41.992,24.414,-379.395,228.027,-115.723
1641437124.432,2.441,32.227,-413.086,58.105,-122.559
1641437124.436,15.625,31.738,-679.199,17.090,-155.762
1641437124.440,34.668,23.438,-871.094,132.324,-146.484
1641437124.444,20.996,23.438,-672.363,149.902,-95.215
1641437124.432,-25.391,21.484,-524.902,-0.488,-81.055
1641437124.436,-28.320,25.879,-813.965,-77.637,-126.953
1641437124.440,21.973,28.320,-811.523,45.898,-90.332
1641437124.444,43.945,31.738,-431.152,140.137,-37.109
1641437124.448,-2.441,25.879,-463.379,3.418,-79.590
1641437124.452,-37.598,18.555,-803.223,-144.531,-87.891
1641437124.455,7.812,31.250,-885.742,-64.941,-100.586
1641437124.459,48.828,39.551,-505.859,91.309,-102.539
1641437124.463,15.137,39.551,-246.582,20.996,-98.633
1641437124.467,-23.926,37.109,-652.832,-161.621,-178.223
1641437124.471,-1.465,30.762,-877.441,-122.070,-212.402
1641437124.475,48.828,30.273,-399.902,67.383,-153.809
1641437124.492,40.039,32.715,-228.027,104.980,-152.344
1641437124.496,-5.371,28.320,-451.660,-72.266,-167.480
1641437124.500,-0.977,25.879,-629.883,-109.863,-151.855
1641437124.504,43.945,26.855,-397.461,90.820,-126.465
1641437124.508,51.758,21.973,-102.051,193.359,-87.402
1641437124.512,-1.953,23.926,-580.078,38.086,-134.277
1641437124.515,-20.996,27.832,-773.438,-62.012,-182.617
1641437124.519,26.855,29.785,-270.996,63.477,-104.980
1641437124.523,56.641,32.227,-237.305,168.457,-111.816
1641437124.527,13.184,30.273,-390.137,70.312,-157.227
1641437124.531,-10.254,26.855,-369.629,-45.898,-184.082
1641437124.535,27.832,30.273,-324.219,20.996,-177.246
1641437124.536,62.500,27.344,-275.879,161.133,-154.297
1641437124.540,35.156,20.996,-300.293,110.840,-168.945
1641437124.544,-8.301,22.461,-387.695,-63.477,-174.316
1641437124.548,10.254,20.508,-449.219,-85.449,-153.320
1641437124.552,49.316,21.973,-429.199,17.090,-157.715
1641437124.556,40.527,24.414,-418.945,14.648,-142.090
1641437124.559,-5.859,23.438,-603.027,-179.688,-155.273
1641437124.563,-8.301,26.855,-551.758,-253.418,-170.898
1641437124.567,44.434,28.809,-564.453,-72.266,-178.223
1641437124.571,58.594,25.391,-735.352,37.598,-212.402
1641437124.575,9.766,22.461,-467.285,-85.449,-211.426
1641437124.579,0.000,26.367,-433.594,-145.508,-249.512
1641437124.582,41.016,33.691,-393.066,-22.949,-163.086
1641437124.586,66.406,37.598,-121.582,118.164,-104.004
1641437124.590,28.809,37.598,-143.066,25.879,-162.598
1641437124.594,-9.277,33.203,-451.172,-130.371,-196.289
1641437124.598,20.996,31.738,-520.508,-54.688,-173.828
1641437124.602,59.570,30.762,-405.762,128.906,-149.902
1641437124.605,44.922,29.297,-349.609,127.441,-146.484
1641437124.609,-1.953,25.391,-432.129,-54.199,-146.484
1641437124.613,4.883,23.926,-841.309,-47.363,-174.805
1641437124.617,60.059,28.809,-666.016,135.742,-100.586
1641437124.621,72.754,36.621,-130.371,202.148,-85.449
1641437124.625,20.508,37.598,-275.391,53.223,-118.652
1641437124.627,3.418,37.598,-439.941,-33.203,-106.934
1641437124.631,44.922,37.598,-280.273,93.262,-96.191
1641437124.635,52.246,35.156,-212.891,184.570,-75.195
1641437124.639,-2.441,30.273,-429.199,33.203,-90.332
1641437124.643,-26.855,23.926,-569.336,-96.680,-148.438
1641437124.647,7.324,23.438,-567.383,-7.324,-181.152
1641437124.650,36.621,29.297,-447.266,136.719,-122.070
1641437124.654,7.324,31.250,-554.688,80.078,-109.375
1641437124.658,-31.250,32.227,-823.730,-109.863,-168.457
1641437124.662,-1.953,34.180,-526.855,-75.684,-153.809
1641437124.666,40.527,35.156,-340.820,83.496,-87.891
1641437124.670,16.113,34.180,-440.918,78.125,-58.594
1641437124.671,-35.156,29.785,-489.746,-78.613,-121.094
1641437124.675,-20.020,29.785,-462.891,-103.516,-155.273
1641437124.679,29.297,32.715,-336.914,57.129,-100.586
1641437124.683,27.832,26.367,-312.012,127.930,-61.523
1641437124.687,-15.137,19.531,-426.270,-36.133,-73.242
1641437124.691,-16.113,23.438,-587.891,-132.812,-72.754
1641437124.694,33.691,30.762,-700.195,-13.184,-85.449
1641437124.698,53.711,30.762,-810.059,65.430,-98.145
1641437124.702,11.230,29.785,-695.312,-74.219,-88.379
1641437124.706,-8.789,32.715,-612.793,-238.281,-85.449
1641437124.710,27.344,31.250,-730.957,-149.902,-119.141
1641437124.714,57.617,29.297,-564.941,52.734,-83.496
1641437124.732,34.180,27.832,-393.555,-7.812,-70.312
1641437124.736,-6.836,24.414,-634.766,-205.566,-156.738
1641437124.740,17.090,20.996,-893.555,-171.875,-196.289
1641437124.744,62.012,26.367,-723.145,-26.367,-145.996
1641437124.748,50.293,30.762,-439.941,-62.012,-111.328
1641437124.752,28.320,36.621,-680.664,-234.375,-141.113
1641437124.755,47.363,33.691,-944.824,-238.770,-144.043
1641437124.759,83.008,25.391,-900.391,-71.777,-134.766
1641437124.763,69.336,28.320,-736.816,20.996,-109.375
1641437124.767,18.555,25.391,-848.145,-79.102,-95.703
1641437124.771,7.812,21.484,-983.887,-218.750,-185.547
1641437124.775,43.945,22.949,-965.332,-118.164,-209.961
1641437124.761,58.594,24.902,-967.285,89.355,-144.531
1641437124.765,2.930,20.508,-969.727,30.273,-158.691
1641437124.769,-35.156,20.508,-969.238,-95.215,-188.477
1641437124.773,-4.395,24.414,-969.238,-23.438,-174.805
1641437124.777,26.367,20.020,-969.727,103.516,-147.461
1641437124.781,-0.977,15.137,-970.215,67.871,-166.016
1641437124.784,-42.969,11.719,-961.426,-65.918,-170.898
1641437124.788,-16.602,11.230,-991.699,-27.832,-169.922
1641437124.792,31.250,8.789,-882.324,119.141,-137.695
1641437124.796,15.137,5.859,-807.129,88.379,-83.984
1641437124.800,-33.691,8.301,-974.121,-83.008,-180.176
1641437124.804,-30.273,21.484,-910.645,-137.695,-218.750
1641437124.836,11.719,20.020,-578.613,39.551,-154.785
1641437124.840,20.508,10.742,-406.250,195.312,-141.602
1641437124.844,-27.832,10.254,-466.797,57.617,-141.602
1641437124.848,-38.086,7.324,-515.137,-73.242,-167.480
1641437124.852,8.301,15.137,-385.254,34.668,-189.453
1641437124.856,29.785,13.672,-400.391,153.320,-134.277
1641437124.859,-5.859,6.836,-541.992,31.250,-158.203
1641437124.863,-36.621,10.254,-538.086,-103.516,-186.523
1641437124.867,-13.184,13.672,-361.328,-9.277,-111.816
1641437124.871,29.785,15.137,-328.613,162.598,-89.844
1641437124.875,19.043,16.602,-281.250,136.719,-106.445
1641437124.879,-31.250,17.090,-106.445,-38.086,-113.281
1641437124.866,-20.996,17.090,-248.535,-33.691,-139.648
1641437124.870,31.738,20.508,-258.301,123.047,-100.098
1641437124.874,34.180,29.297,-148.438,126.465,-43.457
1641437124.878,-14.160,31.250,-175.781,-87.402,-72.754
1641437124.882,-17.578,19.043,-380.859,-168.945,-127.441
1641437124.886,30.762,15.625,-462.891,-0.977,-119.141
1641437124.889,54.199,23.438,-314.453,117.188,-69.824
1641437124.893,14.648,29.297,-214.355,11.230,-91.797
1641437124.897,-7.812,30.273,-374.512,-84.473,-141.113
1641437124.901,31.250,30.273,-568.359,9.277,-126.465
1641437124.905,60.547,37.598,-302.734,150.391,-91.797
1641437124.909,25.879,38.086,-25.879,63.477,-53.223
1641437124.924,-15.625,25.879,-248.047,-127.930,-60.059
1641437124.928,16.602,20.508,-627.441,-67.871,-89.844
1641437124.932,65.430,28.320,-326.172,120.117,-96.680
1641437124.936,53.711,29.785,97.656,130.859,-81.055
1641437124.940,12.695,23.438,-150.879,-45.898,-94.238
1641437124.944,21.484,26.367,-387.207,-76.172,-124.512
1641437124.947,66.406,30.273,-210.449,124.512,-116.211
1641437124.951,66.895,32.227,-55.664,202.637,-48.340
1641437124.955,8.789,27.832,-388.672,41.016,-62.500
1641437124.959,-13.184,26.855,-606.445,-16.602,-119.141
1641437124.963,34.180,29.297,-200.195,130.371,-98.145
1641437124.967,59.082,25.391,1.465,222.656,-63.477
1641437124.957,14.160,23.438,-250.000,77.637,-77.148
1641437124.961,-10.254,24.902,-432.617,-67.871,-117.676
1641437124.965,33.691,26.855,-332.031,24.902,-100.098
1641437124.969,65.918,20.508,-215.820,134.277,-41.504
1641437124.973,38.086,17.578,-349.121,49.316,-47.852
1641437124.977,8.301,28.809,-667.969,-95.215,-100.586
1641437124.980,35.645,36.621,-750.488,-26.855,-101.074
1641437124.984,75.195,32.715,-519.043,117.188,-28.809
1641437124.988,55.176,30.762,-750.488,85.938,-47.363
1641437124.992,3.418,35.156,-932.617,-93.262,-118.164
1641437124.996,4.883,37.598,-697.754,-123.535,-104.004
1641437125.000,45.410,36.621,-650.879,60.547,-68.359
1641437125.001,55.176,40.039,-494.141,162.109,-47.852
1641437125.005,4.883,39.062,-397.949,54.688,-94.727
1641437125.009,-8.789,29.297,-489.746,-47.363,-110.352
1641437125.013,34.668,29.297,-665.527,46.875,-70.312
1641437125.017,53.223,39.551,-524.902,165.039,-30.762
1641437125.021,3.418,39.062,-477.051,63.965,-60.059
1641437125.024,-32.227,32.227,-684.082,-69.336,-125.488
1641437125.028,4.883,35.645,-778.320,3.418,-166.504
1641437125.032,41.504,39.062,-820.312,143.555,-127.441
1641437125.036,19.531,39.062,-437.988,107.910,-73.730
1641437125.040,-18.066,38.574,-399.902,-37.598,-100.586
1641437125.044,-3.906,35.645,-585.938,-41.504,-117.188
1641437125.047,36.133,33.203,-420.410,103.027,-68.848
1641437125.051,29.297,24.414,-244.141,158.691,-18.066
1641437125.055,-20.996,17.578,-417.480,10.742,-85.938
1641437125.059,-25.391,25.879,-624.023,-57.617,-119.629
1641437125.063,27.344,30.273,-476.562,93.750,-70.801
1641437125.067,31.738,24.414,-416.504,157.715,-70.312
1641437125.070,-24.414,21.973,-578.125,12.695,-105.957
1641437125.074,-39.551,24.902,-894.531,-79.102,-140.137
1641437125.078,16.113,28.809,-796.875,34.668,-118.652
1641437125.082,52.246,34.668,-262.207,173.340,-47.363
1641437125.086,23.438,33.203,-312.500,105.469,-14.160
1641437125.090,-12.207,30.273,-550.293,-12.207,-47.852
1641437125.092,17.090,31.738,-432.617,41.992,-83.496
1641437125.096,66.895,27.344,-206.543,187.988,-43.945
1641437125.100,44.922,27.344,-259.766,184.082,-36.621
1641437125.104,2.441,35.156,-472.168,7.324,-99.121
1641437125.108,18.066,33.691,-491.699,-15.137,-79.590
1641437125.112,59.082,32.227,-419.922,156.738,-55.664
1641437125.115,55.176,31.738,-594.727,208.496,-69.824
1641437125.119,4.883,32.227,-770.020,57.617,-113.281
1641437125.123,-2.930,32.715,-649.902,-31.250,-156.250
1641437125.127,38.574,30.762,-474.609,76.172,-122.070
1641437125.131,54.199,33.203,-328.613,188.477,-84.961
1641437125.135,22.949,30.273,-415.527,94.727,-108.398
1641437125.136,-11.719,24.414,-400.879,-46.387,-124.512
1641437125.140,-6.836,27.832,-384.766,-18.066,-98.633
1641437125.144,23.926,31.250,-401.855,111.816,-104.980
1641437125.148,6.836,29.785,-351.562,42.969,-151.367
1641437125.152,-30.273,28.320,-347.656,-168.457,-180.176
1641437125.156,-2.930,27.344,-362.793,-158.203,-196.777
1641437125.159,37.109,27.344,-440.430,-4.883,-148.926
1641437125.163,10.742,26.855,-287.598,-17.578,-78.125
1641437125.167,-33.691,31.250,-120.605,-181.641,-100.098
1641437125.171,-21.973,36.621,-296.387,-199.219,-134.277
1641437125.175,17.578,32.715,-112.793,-31.738,-105.469
1641437125.179,15.137,28.320,102.051,22.949,-98.145
1641437125.182,-34.180,25.879,-51.270,-153.809,-145.996
1641437125.186,-40.039,31.738,-303.223,-255.371,-205.078
1641437125.190,8.789,31.738,-259.277,-130.371,-170.898
1641437125.194,24.902,33.691,157.227,-17.578,-122.559
1641437125.198,-24.414,35.645,225.586,-118.164,-110.352
1641437125.202,-48.828,30.762,-219.238,-220.703,-186.523
1641437125.205,-16.602,28.320,-253.906,-99.609,-187.500
1641437125.209,19.043,32.715,252.930,86.426,-89.355
1641437125.213,-10.254,32.715,378.906,66.406,-65.918
1641437125.217,-59.082,22.949,45.898,-80.078,-133.301
1641437125.221,-39.551,21.484,6.836,-37.109,-135.742
1641437125.225,8.301,27.832,396.973,150.879,-47.363
1641437125.241,0.488,31.738,453.613,184.570,-34.668
1641437125.245,-40.039,34.180,248.535,22.949,-51.758
1641437125.249,-27.832,31.738,51.270,-4.883,-65.918
1641437125.253,19.531,27.344,235.352,195.801,-35.156
1641437125.257,28.320,26.367,506.836,308.594,24.902
1641437125.261,-14.648,23.926,133.789,175.781,-14.648
1641437125.264,-21.484,25.391,-81.055,84.473,-21.484
1641437125.268,37.598,33.691,155.762,205.566,-0.488
1641437125.272,65.430,27.832,240.723,340.332,6.348
1641437125.276,19.531,20.508,-5.859,253.906,5.859
1641437125.280,-4.883,29.785,-58.105,118.652,-17.578
1641437125.284,31.738,37.598,89.355,162.598,-5.859
1641437125.286,70.801,41.016,142.090,335.449,38.086
1641437125.290,42.480,36.621,162.598,355.957,8.789
1641437125.294,-1.953,32.227,66.895,205.566,-64.453
1641437125.298,24.902,36.621,25.879,192.871,-53.223
1641437125.302,72.754,41.016,201.660,343.750,36.621
1641437125.306,65.430,39.062,229.004,408.691,65.918
1641437125.309,21.484,29.785,0.977,249.023,5.371
1641437125.313,20.508,33.203,-76.660,160.645,1.465
1641437125.317,62.988,41.016,-85.938,303.711,35.645
1641437125.321,70.312,41.504,-155.762,386.719,32.715
1641437125.325,18.555,45.410,7.324,233.398,-11.719
1641437125.329,-1.953,43.945,-2.930,119.141,-0.977
1641437125.332,39.062,40.039,9.277,229.004,83.496
1641437125.336,61.523,37.109,231.445,349.121,124.512
1641437125.340,22.949,33.691,260.742,248.535,126.465
1641437125.344,-8.301,33.691,22.461,95.703,68.848
1641437125.348,16.602,30.762,-79.590,139.160,21.484
1641437125.352,54.199,31.250,19.043,279.297,49.805
1641437125.355,36.133,33.203,17.090,257.812,19.043
1641437125.359,-9.766,35.156,-80.566,73.242,-4.395
1641437125.363,6.836,36.133,-283.203,49.316,-0.977
1641437125.367,56.641,33.691,-65.430,193.359,65.918
1641437125.371,50.781,35.156,270.508,215.820,99.609
1641437125.375,2.441,35.645,51.270,46.387,24.414
1641437125.376,-2.441,31.250,-290.527,-43.457,6.836
1641437125.380,44.434,35.645,-35.645,96.680,54.688
1641437125.384,61.035,34.180,197.754,201.660,68.359
1641437125.388,13.672,25.879,34.180,55.664,77.148
1641437125.392,-16.602,24.902,-102.539,-103.516,55.664
1641437125.396,22.461,28.320,-175.781,-37.598,-3.906
1641437125.399,51.270,29.297,-75.195,85.449,18.555
1641437125.403,14.648,25.879,-109.375,23.438,15.137
1641437125.407,-15.625,26.367,-329.102,-129.883,-45.898
1641437125.411,11.230,25.879,-114.258,-105.469,-76.172
1641437125.415,56.152,27.344,32.227,58.105,-33.203
1641437125.419,41.016,27.344,-61.523,75.195,43.945
1641437125.422,-7.324,20.508,-117.676,-83.496,51.270
1641437125.426,-0.977,22.949,-113.770,-113.770,-4.395
1641437125.430,49.805,27.344,-27.344,59.082,10.254
1641437125.434,55.664,28.320,47.852,113.281,74.707
1641437125.438,2.930,25.391,3.418,-37.598,56.641
1641437125.442,-11.719,24.902,-183.105,-88.867,9.277
1641437125.445,33.691,25.391,-195.312,66.406,3.418
1641437125.449,52.734,23.926,-189.453,209.961,33.203
1641437125.453,2.930,25.879,-136.719,109.375,39.062
1641437125.457,-24.902,30.273,-21.973,-9.766,15.625
1641437125.461,16.113,25.391,-67.383,93.262,20.508
1641437125.465,51.270,20.020,102.051,248.535,86.426
1641437125.468,19.531,29.785,275.391,201.172,89.844
1641437125.472,-26.855,32.715,-12.695,37.598,-12.207
1641437125.476,-2.930,31.250,-285.156,71.289,-88.379
1641437125.480,48.340,36.621,-32.715,253.906,-60.547
1641437125.484,34.668,35.156,253.906,286.621,24.414
1641437125.488,-18.066,27.344,-12.207,127.441,18.066
1641437125.491,-8.301,28.809,-358.398,87.402,7.812
1641437125.495,41.992,32.715,-320.312,240.723,-2.930
1641437125.499,49.316,29.785,103.027,303.223,10.742
1641437125.503,-0.977,27.832,201.660,150.879,41.992
1641437125.507,-14.160,37.109,-41.504,39.062,-5.859
1641437125.511,28.809,43.457,-22.949,138.672,-20.996
1641437125.526,51.270,39.062,228.027,262.207,32.227
1641437125.530,11.719,36.621,161.621,160.645,51.758
1641437125.534,-15.625,33.691,-137.695,18.555,30.273
1641437125.538,15.625,32.715,-88.379,63.965,40.527
1641437125.542,50.781,32.715,37.598,228.516,73.730
1641437125.546,28.809,28.320,-8.301,229.004,89.844
1641437125.549,-23.438,23.926,-493.652,44.434,61.523
1641437125.553,-3.906,28.809,-566.895,29.785,92.285
1641437125.557,44.434,38.574,1.953,156.250,159.180
1641437125.561,35.156,34.180,74.219,181.152,156.250
1641437125.565,-20.996,28.809,-125.977,41.016,106.445
1641437125.569,-32.227,29.297,-172.852,-20.020,46.875
1641437125.571,12.695,28.320,22.949,133.301,37.109
1641437125.575,23.926,25.879,135.254,213.379,54.688
1641437125.579,-23.438,26.855,-0.488,78.613,59.570
1641437125.583,-33.203,29.785,-56.152,4.883,54.199
1641437125.587,8.301,20.020,55.176,122.070,84.473
1641437125.591,38.086,17.578,46.875,268.555,124.512
1641437125.594,14.648,26.855,-96.191,202.148,119.629
1641437125.598,-15.137,33.203,-240.234,47.363,71.777
1641437125.602,17.090,33.691,-93.750,104.492,69.336
1641437125.606,59.570,30.762,-145.020,256.836,100.586
1641437125.610,44.922,32.227,-383.301,239.258,121.582
1641437125.614,8.789,40.039,-227.539,66.895,111.328
1641437125.618,22.461,39.551,-221.680,49.316,108.398
1641437125.622,63.477,33.203,-165.527,211.914,171.875
1641437125.626,59.570,24.414,-23.438,257.324,195.801
1641437125.630,4.883,23.926,-163.086,104.004,115.234
1641437125.634,-5.859,28.809,-372.559,40.039,66.406
1641437125.638,38.086,30.273,-388.672,205.078,119.141
1641437125.641,54.199,36.133,-332.520,329.590,135.742
1641437125.645,6.348,38.574,-326.172,209.961,137.207
1641437125.649,-19.043,28.809,-427.734,94.238,87.891
1641437125.653,14.160,24.902,-671.387,189.941,72.754
1641437125.657,43.945,31.738,-392.090,345.215,126.465
1641437125.661,14.648,33.203,-53.223,290.039,145.996
1641437125.656,-22.949,24.414,-367.676,134.766,97.656
1641437125.660,-0.977,29.297,-512.207,159.668,65.918
1641437125.664,41.504,41.504,-186.523,302.734,98.145
1641437125.668,25.879,39.551,-11.719,314.453,124.512
1641437125.672,-21.973,34.668,-201.172,159.180,119.141
1641437125.676,-6.348,36.621,-469.727,125.488,78.613
1641437125.679,44.922,38.574,-298.340,286.621,113.770
1641437125.683,46.387,39.551,76.172,364.746,172.852
1641437125.687,1.465,35.156,-225.098,214.355,131.348
1641437125.691,-11.230,36.621,-651.367,102.539,62.500
1641437125.695,39.551,36.133,-249.023,230.469,93.750
1641437125.699,72.266,32.227,101.074,356.445,144.043
1641437125.708,23.438,35.645,-53.223,230.957,122.070
1641437125.712,-10.254,31.250,-311.035,63.477,91.309
1641437125.716,27.832,29.785,-270.996,107.910,92.773
1641437125.720,66.895,30.273,-73.730,225.586,105.469
1641437125.724,38.574,27.832,-215.332,150.391,113.770
1641437125.728,-11.719,27.344,-584.473,-56.152,79.590
1641437125.731,2.930,34.668,-676.758,-81.055,38.086
1641437125.735,45.898,37.109,-347.168,46.875,35.645
1641437125.739,34.668,30.273,86.914,38.086,41.504
1641437125.743,-11.230,27.832,154.785,-161.621,35.156
1641437125.747,-12.207,27.344,114.746,-230.957,-5.859
1641437125.751,36.133,25.879,111.816,-65.430,-4.883
1641437125.752,52.246,32.227,207.031,33.691,18.555
1641437125.756,-1.953,32.227,276.367,-75.684,18.555
1641437125.760,-18.555,27.832,136.230,-151.367,45.898
1641437125.764,27.344,25.879,79.590,-15.625,57.617
1641437125.768,55.176,24.414,183.594,153.320,100.586
1641437125.772,14.648,24.902,119.629,84.961,87.402
1641437125.775,-20.996,25.879,-46.875,-26.367,27.344
1641437125.779,10.254,22.949,-131.836,49.316,33.203
1641437125.783,50.293,25.391,-191.895,187.012,63.965
1641437125.787,33.691,39.062,152.832,174.316,97.656
1641437125.791,-5.371,39.062,184.082,13.184,123.535
1641437125.795,10.742,30.762,-3.418,19.043,159.180
1641437125.796,62.012,30.762,146.484,168.457,158.203
1641437125.800,65.430,33.203,306.641,186.523,186.523
1641437125.804,20.508,31.250,103.516,37.109,146.484
1641437125.808,12.695,30.273,-204.590,-33.203,103.516
1641437125.812,59.082,27.832,-75.684,105.957,180.176
1641437125.816,69.336,23.926,98.633,192.871,217.773
1641437125.819,13.184,29.785,-49.316,55.664,197.266
1641437125.823,-8.301,31.250,-510.742,-38.574,120.117
1641437125.827,31.738,32.227,-443.359,80.078,120.117
1641437125.831,58.105,34.668,153.809,231.934,220.703
1641437125.835,15.137,29.785,156.738,158.203,192.383
1641437125.839,-20.020,27.832,-53.223,-9.277,115.234
1641437125.857,9.277,29.785,5.859,32.715,89.355
1641437125.861,49.316,26.855,236.816,189.941,154.297
1641437125.865,34.180,24.414,204.102,161.621,163.086
1641437125.869,-8.301,30.762,42.969,-22.949,133.301
1641437125.873,-0.977,25.391,64.453,-37.109,152.344
1641437125.877,47.363,10.254,106.445,129.883,163.574
1641437125.880,64.453,12.207,-2.441,182.129,161.133
1641437125.884,18.555,25.879,-199.707,23.926,104.492
1641437125.888,-13.672,36.133,-174.316,-99.121,90.332
1641437125.892,14.160,33.691,-95.215,54.199,123.535
1641437125.896,34.180,27.344,-114.746,214.355,149.902
1641437125.900,-1.953,29.297,-203.613,112.305,175.293
1641437125.886,-29.785,33.691,-186.035,-30.273,190.918
1641437125.890,8.301,35.645,-188.477,10.254,174.316
1641437125.894,48.340,40.527,-86.914,146.484,182.617
1641437125.898,11.230,41.504,16.602,102.539,203.125
1641437125.902,-35.156,39.551,-166.992,-58.594,129.883
1641437125.906,-15.137,37.598,-403.809,-48.340,81.543
1641437125.909,25.391,38.086,-187.988,87.402,143.555
1641437125.913,17.578,38.574,201.172,96.191,196.289
1641437125.917,-19.043,34.668,195.801,-75.684,170.898
1641437125.921,-14.160,37.598,-25.391,-125.000,113.770
1641437125.925,28.809,44.434,-80.566,29.785,89.355
1641437125.929,41.504,44.434,182.617,83.008,136.719
1641437125.933,-6.836,34.668,243.652,-81.055,108.398
1641437125.937,-20.996,30.273,42.969,-175.293,53.223
1641437125.941,26.367,29.297,49.805,-38.086,57.617
1641437125.945,53.223,31.250,516.113,91.797,116.699
1641437125.949,12.695,24.902,582.031,-30.762,121.582
1641437125.953,-16.602,19.043,75.195,-162.598,60.547
1641437125.956,21.484,29.297,-12.207,-69.336,6.836
1641437125.960,56.152,36.621,459.961,76.660,25.391
1641437125.964,24.902,35.156,612.793,34.668,42.969
1641437125.968,-20.020,33.691,243.164,-136.719,2.441
1641437125.972,2.930,35.156,86.426,-113.281,-19.531
1641437125.976,54.199,40.527,347.168,69.336,12.695
1641437125.992,52.246,44.434,449.219,108.398,20.020
1641437125.996,-2.441,37.109,277.832,-38.574,9.766
1641437126.000,-6.348,32.227,28.809,-83.008,-13.672
1641437126.004,46.387,31.738,123.047,80.566,4.883
1641437126.008,54.199,30.273,347.656,175.781,31.250
1641437126.012,1.953,33.203,54.199,35.645,-5.371
1641437126.015,-12.695,40.039,-232.422,-70.312,-45.410
1641437126.019,33.691,43.457,20.996,40.527,-3.906
1641437126.023,55.176,40.527,252.930,175.781,71.777
1641437126.027,14.160,41.992,-50.293,69.336,12.207
1641437126.031,-12.695,45.898,-129.395,-90.332,33.691
1641437126.035,13.184,44.434,97.168,-46.387,82.520
1641437126.036,46.875,37.598,154.297,96.680,57.617
1641437126.040,29.785,39.062,190.918,119.141,54.688
1641437126.044,-22.949,34.180,104.980,-10.742,13.184
1641437126.048,-11.230,20.508,52.246,-16.113,27.832
1641437126.052,40.039,23.438,164.551,163.574,131.836
1641437126.056,31.738,29.297,172.852,258.789,139.648
1641437126.059,-25.391,29.297,-81.543,104.492,66.895
1641437126.063,-38.574,27.832,-126.465,29.785,44.922
1641437126.067,9.766,26.855,-52.734,158.203,93.262
1641437126.071,26.855,29.785,-167.480,176.270,107.422
1641437126.075,-8.789,36.621,21.973,-20.508,116.699
1641437126.079,-20.508,33.203,29.297,-142.578,71.777
1641437126.082,19.043,23.926,-31.250,-46.875,36.133
1641437126.086,54.688,24.414,161.133,80.078,97.656
1641437126.090,27.832,32.715,193.848,-16.113,73.730
1641437126.094,-2.930,37.109,-52.246,-158.203,41.016
1641437126.098,30.273,41.016,-164.062,-88.379,56.641
1641437126.102,72.754,43.457,-56.641,50.781,67.871
1641437126.105,50.293,41.504,-17.090,35.156,62.012
1641437126.109,4.395,36.621,-103.027,-132.812,20.020
1641437126.113,1.465,26.855,-562.500,-171.875,-46.387
1641437126.117,45.410,21.484,-482.422,-12.695,-24.414
1641437126.121,52.734,26.367,133.301,90.820,65.918
1641437126.125,0.000,34.180,-37.109,-39.062,49.805
1641437126.126,-1.465,34.180,-270.508,-136.230,8.301
1641437126.130,46.875,35.156,1.465,1.953,57.129
1641437126.134,59.082,39.062,187.012,129.395,100.098
1641437126.138,14.160,36.621,-60.059,1.465,55.664
1641437126.142,-6.348,34.180,-275.391,-141.602,-9.766
1641437126.146,34.668,33.203,-280.273,-60.059,7.324
1641437126.149,69.824,27.344,-109.863,114.746,44.434
1641437126.153,41.992,30.273,-218.262,74.707,0.977
1641437126.157,1.465,34.668,-547.852,-98.145,-63.477
1641437126.161,23.438,35.156,-301.758,-51.270,-32.715
1641437126.165,65.918,33.203,-42.969,121.582,22.949
1641437126.169,48.828,28.809,-77.148,98.145,20.996
1641437126.171,-1.953,30.762,-180.176,-91.797,52.246
1641437126.175,2.441,33.203,-241.699,-106.934,48.340
1641437126.179,43.457,33.691,-198.242,81.543,22.461
1641437126.183,50.293,31.738,-153.809,152.344,40.039
1641437126.187,5.371,33.203,-165.039,-3.418,60.059
1641437126.191,-11.230,35.156,-344.727,-81.543,66.895
1641437126.194,36.621,37.598,-416.992,64.453,62.500
1641437126.198,61.035,37.109,-379.883,182.617,76.172
1641437126.202,13.184,30.273,-320.312,54.688,64.941
1641437126.206,-25.391,27.344,-226.074,-72.754,68.848
1641437126.210,16.602,30.762,-268.555,17.090,101.562
1641437126.214,55.664,34.180,-188.477,160.645,110.352
1641437126.217,20.996,34.668,-58.594,117.676,107.422
1641437126.221,-23.438,32.715,-290.039,-60.059,53.711
1641437126.225,-8.301,24.902,-609.863,-42.969,-23.438
1641437126.229,35.645,26.367,-356.934,125.000,-13.184
1641437126.233,36.133,36.621,33.203,162.598,45.410
1641437126.237,-11.230,36.133,-152.344,22.461,44.434
1641437126.240,-21.973,31.738,-526.367,-31.250,48.340
1641437126.244,24.902,34.668,-515.625,111.328,34.668
1641437126.248,35.645,37.109,-55.664,197.266,32.227
1641437126.252,-17.578,32.227,-19.043,53.223,31.250
1641437126.256,-34.180,25.879,-328.125,-63.965,21.973
1641437126.260,6.348,25.391,-266.113,48.828,55.176
1641437126.277,30.762,22.461,17.578,189.941,99.609
1641437126.281,-4.395,25.879,13.672,112.305,114.746
1641437126.285,-36.133,31.250,-248.535,-18.066,104.492
1641437126.289,0.488,30.273,-234.863,48.828,74.219
1641437126.293,50.293,31.250,-136.719,212.891,30.762
1641437126.297,31.250,30.273,-229.492,214.844,41.992
1641437126.300,-20.508,26.855,-630.859,30.273,13.184
1641437126.304,-5.859,28.809,-709.473,1.465,2.930
1641437126.308,37.109,31.250,-131.348,170.410,97.168
1641437126.312,26.855,24.902,-7.324,209.473,123.047
1641437126.316,-17.578,27.832,-254.395,37.598,54.688
1641437126.320,-23.926,33.691,-346.680,-59.082,8.789
1641437126.323,23.926,32.227,-274.902,78.125,30.273
1641437126.327,38.086,29.785,-247.559,184.570,59.082
1641437126.331,-7.324,31.250,-445.801,37.109,58.105
1641437126.335,-21.484,29.297,-617.676,-93.262,60.547
1641437126.339,14.648,25.879,-716.309,-6.836,54.199
1641437126.343,47.363,28.809,-750.000,113.281,65.430
1641437126.346,16.602,30.273,-795.410,43.945,78.613
1641437126.350,-9.766,32.227,-900.391,-105.469,36.133
1641437126.354,25.879,40.039,-746.094,-53.223,69.336
1641437126.358,41.992,42.480,-693.848,99.609,111.328
1641437126.362,17.578,39.062,-938.965,58.105,115.723
1641437126.366,-6.348,43.457,-943.848,-124.023,102.051
1641437126.367,15.137,36.133,-960.938,-113.281,76.660
1641437126.371,62.500,29.297,-928.223,66.895,82.031
1641437126.375,59.082,27.832,-745.605,121.094,104.980
1641437126.379,12.207,21.484,-750.488,-27.344,78.613
1641437126.383,10.742,24.902,-888.672,-92.773,68.359
1641437126.387,56.641,34.668,-896.973,52.246,65.430
1641437126.390,72.266,42.969,-733.398,165.039,93.262
1641437126.394,30.762,38.574,-562.988,62.012,136.719
1641437126.398,-9.766,27.344,-653.320,-67.383,106.934
1641437126.402,18.066,28.809,-896.973,1.953,77.148
1641437126.406,60.059,33.203,-671.875,156.738,80.566
1641437126.410,27.832,32.227,-293.457,109.375,116.211
1641437126.411,-8.789,33.691,-407.227,-66.895,103.027
1641437126.415,22.949,28.809,-480.469,-58.105,80.566
1641437126.419,73.242,23.926,-116.211,83.984,111.328
1641437126.423,64.941,34.180,78.613,83.984,121.094
1641437126.427,19.531,39.551,-104.492,-98.633,102.051
1641437126.431,17.090,35.645,-280.762,-147.461,63.965
1641437126.434,51.758,32.227,-120.605,20.508,88.379
1641437126.438,61.035,33.203,178.711,89.355,94.727
1641437126.442,13.184,30.273,-9.277,-61.523,60.059
1641437126.446,-8.301,26.855,-245.117,-154.785,81.543
1641437126.450,42.969,27.344,148.438,-30.762,102.051
1641437126.454,67.383,23.438,429.199,83.008,109.863
1641437126.458,17.090,24.902,209.473,-32.715,78.125
1641437126.462,-11.719,29.785,-40.527,-173.828,80.566
1641437126.466,26.855,29.785,136.230,-94.727,114.746
1641437126.470,62.500,27.832,302.734,62.988,104.492
1641437126.474,35.645,26.367,187.012,44.922,74.219
1641437126.478,-6.348,29.297,-25.879,-106.445,73.730
1641437126.481,9.277,29.297,-84.473,-87.402,60.547
1641437126.485,47.852,29.297,61.035,90.332,71.289
1641437126.489,38.086,32.227,-2.930,112.305,98.633
1641437126.493,-10.742,30.762,-57.129,-10.254,57.129
1641437126.497,-12.695,21.973,94.238,-23.926,54.199
1641437126.501,43.945,25.879,82.031,127.441,82.031
1641437126.518,59.570,37.109,117.676,222.168,97.168
1641437126.522,9.766,42.480,104.980,76.660,86.426
1641437126.526,-10.254,38.086,-31.738,-51.270,80.078
1641437126.530,31.738,32.715,-176.758,41.504,70.312
1641437126.534,65.430,36.621,-133.301,194.336,60.059
1641437126.538,25.879,33.203,-90.332,115.723,93.262
1641437126.541,-15.625,27.344,-330.566,-62.500,89.355
1641437126.545,17.090,24.902,-505.371,10.254,62.012
1641437126.549,57.617,20.996,-574.707,189.941,65.430
1641437126.553,33.203,28.809,-353.516,167.969,78.613
1641437126.557,-11.230,37.109,-231.445,7.324,59.570
1641437126.561,9.766,42.480,-341.309,27.344,35.645
1641437126.547,65.430,41.504,-160.645,202.148,72.754
1641437126.551,69.824,35.645,55.176,231.445,102.539
1641437126.555,18.555,36.133,-152.344,62.012,27.832
1641437126.559,12.207,33.203,-431.152,-20.020,-5.371
1641437126.563,71.289,32.227,-277.344,120.605,51.758
1641437126.567,81.055,36.621,-224.609,203.613,51.758
1641437126.570,3.906,37.109,-513.672,33.691,11.230
1641437126.574,-20.020,26.367,-686.523,-124.023,-42.969
1641437126.578,27.344,24.902,-532.227,-53.223,-81.055
1641437126.582,55.664,35.156,-196.777,79.590,-13.184
1641437126.586,24.902,38.574,-130.371,6.836,13.672
1641437126.590,-15.137,40.527,-669.434,-113.281,-90.820
1641437126.591,10.254,35.156,-678.711,-15.137,-94.727
1641437126.595,57.617,36.133,-51.270,136.230,-16.602
1641437126.599,45.410,39.551,61.523,135.742,-19.043
1641437126.603,2.441,38.086,-7.324,-29.785,-4.883
1641437126.607,12.207,37.598,51.758,-67.871,-12.695
1641437126.611,60.059,34.180,132.324,106.445,6.348
1641437126.614,64.453,24.902,110.840,170.898,30.273
1641437126.618,14.160,22.949,-58.594,20.508,-12.207
1641437126.622,4.883,32.715,56.152,-68.359,-11.230
1641437126.626,49.805,39.551,138.672,47.363,5.371
1641437126.630,63.965,35.156,171.387,182.617,23.438
1641437126.634,15.625,32.715,285.156,77.148,33.691
1641437126.638,-9.766,28.320,268.555,-64.453,11.230
1641437126.642,37.109,26.855,204.102,6.348,13.184
1641437126.646,67.383,25.391,207.520,129.883,13.672
1641437126.650,29.785,20.996,169.922,38.086,3.418
1641437126.654,-7.324,22.949,2.930,-154.785,-24.414
1641437126.658,18.066,30.273,-221.680,-150.391,-10.254
1641437126.661,69.336,33.203,-234.375,-21.973,79.102
1641437126.665,58.105,32.227,-51.270,-21.484,94.727
1641437126.669,9.766,31.250,-49.805,-170.898,86.914
1641437126.673,19.043,29.297,-250.488,-207.520,102.051
1641437126.677,65.430,33.203,-474.609,-75.195,58.105
1641437126.681,67.871,39.551,-258.789,-21.484,71.777
1641437126.682,13.184,30.762,-204.102,-149.902,73.242
1641437126.686,-6.348,22.949,-510.742,-211.914,15.625
1641437126.690,43.945,28.809,-411.133,-77.637,61.523
1641437126.694,67.871,31.250,-104.004,62.012,116.211
1641437126.698,24.902,31.738,-77.637,-19.531,145.996
1641437126.702,-7.812,29.297,-525.879,-144.531,87.402
1641437126.705,29.785,30.762,-854.004,-25.391,27.832
1641437126.709,70.312,34.180,-292.480,156.250,145.020
1641437126.713,40.039,32.227,59.082,143.555,173.340
1641437126.717,-4.883,30.273,-236.816,-13.184,100.098
1641437126.721,12.207,27.344,-344.727,-6.836,85.938
1641437126.725,59.570,29.297,-111.816,175.293,131.836
1641437126.741,53.711,31.250,-7.812,208.496,150.879
1641437126.745,-0.977,32.227,-214.844,27.832,96.680
1641437126.749,-10.254,36.621,-462.891,-46.387,72.754
1641437126.753,36.133,37.109,-324.219,94.727,99.609
1641437126.757,51.758,37.109,-45.898,176.758,103.516
1641437126.761,3.418,35.645,-361.328,37.109,30.762
1641437126.764,-16.113,36.621,-555.176,-53.711,38.574
1641437126.768,28.320,34.180,-211.914,50.781,97.168
1641437126.772,50.781,21.484,-20.020,174.316,107.910
1641437126.776,8.301,26.367,-279.785,82.520,81.055
1641437126.780,-17.090,36.621,-362.305,-90.332,38.574
1641437126.784,12.207,35.156,-179.199,-37.598,49.316
1641437126.788,47.852,37.109,-60.059,122.559,103.516
1641437126.792,24.414,36.621,26.367,95.215,127.930
1641437126.796,-16.113,37.598,5.859,-89.355,83.008
1641437126.800,9.766,38.574,-75.195,-83.984,35.645
1641437126.804,53.711,31.738,-72.266,114.258,37.109
1641437126.808,43.945,26.855,-53.223,179.688,58.105
1641437126.811,-1.953,30.762,-109.863,23.926,50.293
1641437126.815,0.488,36.621,-206.543,-60.547,-5.859
1641437126.819,49.805,36.133,-296.875,55.176,-31.250
1641437126.823,53.711,34.180,-301.758,137.207,-27.832
1641437126.827,-1.953,33.691,-31.738,4.883,36.621
1641437126.831,-17.578,33.691,-58.105,-116.211,40.527
1641437126.861,21.973,30.273,-94.238,-21.484,35.156
1641437126.865,49.316,30.762,74.707,113.770,77.148
1641437126.869,18.555,24.902,98.633,37.598,63.965
1641437126.873,-16.113,19.043,-104.980,-117.188,0.977
1641437126.877,15.625,22.461,-229.980,-64.941,-24.902
1641437126.881,56.641,23.926,-162.598,84.473,-1.953
1641437126.884,44.434,26.855,-72.754,80.566,40.039
1641437126.888,3.418,26.855,-234.375,-97.168,27.344
1641437126.892,21.484,27.832,-547.363,-120.605,13.184
1641437126.896,60.547,37.109,-373.047,49.805,56.641
1641437126.900,44.434,35.156,-137.695,93.750,65.918
1641437126.904,-3.418,24.902,-366.699,-69.824,13.184
1641437126.876,-11.230,25.879,-863.770,-165.527,-68.359
1641437126.880,38.086,29.785,-649.414,-38.086,-46.387
1641437126.884,52.246,20.996,-121.094,83.984,38.574
1641437126.888,-1.953,14.160,-219.238,-39.062,42.480
1641437126.892,-25.879,23.926,-450.195,-156.250,3.906
1641437126.896,19.043,30.273,-415.527,-47.363,-22.949
1641437126.899,54.199,34.180,-209.961,111.816,7.324
1641437126.903,19.531,35.156,-256.836,69.824,10.254
1641437126.907,-20.020,35.156,-362.793,-83.008,-14.648
1641437126.911,-4.395,32.227,-203.613,-7.812,-5.371
1641437126.915,31.738,31.250,2.930,187.500,31.250
1641437126.919,20.996,38.086,15.625,190.430,72.266
1641437126.938,-24.902,36.133,-154.297,20.996,28.809
1641437126.942,-18.555,27.344,-178.711,-42.969,-7.324
1641437126.946,29.785,30.762,22.461,106.934,51.270
1641437126.950,41.016,35.645,-120.117,184.570,68.359
1641437126.954,-9.277,32.715,-408.203,48.340,20.996
1641437126.958,-28.320,25.879,-284.668,-51.270,21.484
1641437126.961,13.184,25.879,-223.145,51.270,60.547
1641437126.965,41.992,30.273,-322.266,181.152,67.871
1641437126.969,1.465,32.715,-160.645,77.148,71.777
1641437126.973,-31.250,37.109,-34.668,-69.824,67.383
1641437126.977,6.348,34.668,-225.098,10.254,35.645
1641437126.981,41.992,27.832,-98.145,172.363,19.043
1641437126.967,17.090,27.344,82.031,143.066,29.297
1641437126.971,-23.926,27.832,-15.625,-28.809,71.289
1641437126.975,-8.789,26.367,-339.844,-24.902,46.387
1641437126.979,44.434,32.715,-291.992,147.949,57.129
1641437126.983,48.340,42.969,64.941,190.918,67.871
1641437126.987,-4.883,41.016,-168.457,30.762,12.695
1641437126.990,-4.883,36.133,-458.008,-17.578,-26.367
1641437126.994,44.922,37.598,-226.562,138.184,-3.906
1641437126.998,53.223,37.598,149.414,236.328,81.543
1641437127.002,3.906,33.691,166.992,91.797,83.008
1641437127.006,-13.672,27.832,-336.914,-27.344,41.016
1641437127.010,32.227,30.762,-493.652,89.355,6.836
1641437127.011,60.059,38.574,23.438,233.887,28.320
1641437127.015,20.508,35.156,82.031,156.738,25.879
1641437127.019,-15.625,32.715,-172.363,0.000,31.250
1641437127.023,16.602,38.086,-132.812,61.035,65.918
1641437127.027,60.059,38.574,3.418,211.426,71.289
1641437127.031,38.086,39.062,-53.223,184.082,65.918
1641437127.034,-9.766,37.598,-448.242,22.949,24.414
1641437127.038,1.953,40.039,-535.156,1.465,7.812
1641437127.042,51.758,41.504,35.645,165.039,51.270
1641437127.046,46.875,31.738,168.457,208.496,85.449
1641437127.050,1.465,30.762,-73.730,48.828,66.406
1641437127.054,0.000,35.645,-114.258,-20.020,27.344
1641437127.071,37.109,40.039,-4.883,98.145,38.086
1641437127.075,54.688,43.457,25.391,167.969,96.191
1641437127.079,6.348,37.109,-99.609,22.949,108.398
1641437127.083,-23.438,32.227,-199.219,-88.867,55.176
1641437127.087,14.648,38.574,-106.445,19.531,84.473
1641437127.091,44.434,40.039,-185.547,165.527,148.926
1641437127.094,12.207,36.133,-250.977,93.262,137.207
1641437127.098,-28.809,28.809,-252.930,-73.242,94.238
1641437127.102,0.977,26.367,-281.250,-20.020,83.984
1641437127.106,47.852,27.832,-354.492,144.043,67.871
1641437127.110,28.809,30.762,-382.324,134.277,31.738
1641437127.114,-11.719,37.598,-196.289,-35.156,61.523
1641437127.117,3.906,38.574,-302.734,-70.312,41.504
1641437127.121,49.805,40.039,-241.699,94.238,41.504
1641437127.125,51.758,40.039,-62.012,150.879,79.102
1641437127.129,1.465,37.598,-201.172,-11.230,73.242
1641437127.133,-10.742,32.227,-431.152,-111.328,70.801
1641437127.137,41.016,27.344,-497.070,13.184,31.250
1641437127.140,61.035,27.832,-414.062,125.977,40.527
1641437127.144,15.137,29.297,-363.281,-4.883,36.621
1641437127.148,-4.395,24.414,-531.250,-145.020,-2.441
1641437127.152,31.738,19.043,-867.188,-79.590,-22.949
1641437127.156,62.500,29.785,-711.914,64.453,5.371
1641437127.160,33.203,36.621,-377.441,22.949,46.875
1641437127.162,-6.348,30.273,-622.559,-163.574,24.414
1641437127.166,16.602,29.297,-809.570,-153.809,27.832
1641437127.170,57.129,32.227,-512.207,1.953,88.379
1641437127.174,44.922,32.715,-429.688,11.230,60.059
1641437127.178,-1.465,35.645,-663.086,-149.414,-12.207
1641437127.182,7.324,35.645,-897.949,-196.777,11.719
1641437127.185,61.035,39.062,-799.316,-24.902,36.133
1641437127.189,68.359,37.109,-542.969,83.496,48.340
1641437127.193,11.230,21.484,-724.121,-70.801,18.066
1641437127.197,-7.324,18.066,-993.164,-186.523,-61.523
1641437127.201,44.434,31.250,-780.273,-54.199,-28.809
1641437127.205,72.266,36.133,-470.703,90.820,23.438
1641437127.208,20.508,32.715,-587.891,-14.160,5.859
1641437127.212,-13.184,34.668,-878.906,-151.855,-50.293
1641437127.216,27.832,41.016,-722.656,-72.266,-51.758
1641437127.220,63.477,38.574,-471.191,78.125,7.324
1641437127.224,34.180,27.344,-647.461,38.574,-36.133
1641437127.228,-12.207,28.809,-927.734,-152.832,-109.375
1641437127.231,3.906,33.691,-950.684,-152.344,-95.703
1641437127.235,46.387,32.227,-734.863,23.438,-51.270
1641437127.239,34.668,28.809,-811.035,65.430,-37.109
1641437127.243,-12.695,26.367,-918.457,-91.797,-61.523
1641437127.247,-17.578,27.832,-812.012,-150.879,-70.801
1641437127.251,23.438,28.320,-841.797,0.000,-92.285
1641437127.282,40.527,33.691,-689.941,118.652,-83.008
1641437127.286,-1.465,42.969,-649.414,-11.230,-39.551
1641437127.290,-20.020,46.387,-807.129,-133.301,-30.273
1641437127.294,18.066,44.434,-898.926,-13.672,-56.152
1641437127.298,43.945,39.062,-858.398,135.742,-34.180
1641437127.302,15.137,40.527,-794.922,58.594,26.855
1641437127.305,-1.953,42.480,-938.965,-32.227,-18.555
1641437127.309,11.230,38.086,-979.492,67.383,-34.180
1641437127.313,28.320,28.809,-966.309,187.500,26.367
1641437127.317,20.508,22.949,-818.848,181.641,68.359
1641437127.321,-13.672,27.344,-838.379,24.414,87.402
1641437127.325,-2.930,29.785,-1000.000,-12.695,53.223
1641437127.297,42.969,33.203,-781.738,155.273,60.059
1641437127.301,46.875,34.668,-577.637,213.867,68.359
1641437127.305,1.953,32.227,-753.418,50.781,42.480
1641437127.309,-4.883,29.297,-971.680,-34.180,18.555
1641437127.313,41.992,30.762,-851.562,86.426,-0.488
1641437127.317,63.477,31.250,-686.035,175.293,-13.672
1641437127.320,14.648,25.879,-811.035,13.184,-3.906
1641437127.324,-14.648,15.137,-949.707,-151.367,1.953
1641437127.328,25.391,14.160,-819.824,-73.242,44.434
1641437127.332,61.523,23.438,-563.965,58.105,56.641
1641437127.336,26.367,29.297,-666.016,-20.020,-25.391
1641437127.340,-6.348,34.180,-939.941,-192.871,-51.270
1641437127.341,22.949,38.574,-865.234,-163.086,-36.621
1641437127.345,65.430,39.551,-597.168,-18.555,-54.199
1641437127.349,50.781,32.715,-645.508,-30.273,-39.551
1641437127.353,-4.395,28.809,-976.074,-215.820,-39.551
1641437127.357,3.906,31.738,-895.508,-253.418,-54.688
1641437127.361,57.617,32.227,-749.023,-80.566,-50.781
1641437127.364,68.359,39.062,-763.672,-1.953,-5.859
1641437127.368,22.949,40.527,-713.379,-146.484,32.715
1641437127.372,8.301,31.250,-678.711,-251.953,-20.020
1641437127.376,48.828,35.645,-657.227,-123.535,-64.453
1641437127.380,71.289,40.039,-763.672,26.855,-59.082
1641437127.384,16.602,29.785,-837.402,-62.500,2.441
1641437127.388,-15.625,23.926,-651.855,-178.711,56.152
1641437127.392,28.320,27.832,-519.531,-83.984,51.758
1641437127.396,61.035,33.691,-407.227,69.336,74.219
1641437127.400,30.273,31.250,-362.793,18.066,52.734
1641437127.404,-8.789,29.785,-550.781,-165.039,-23.926
1641437127.408,8.789,33.203,-752.930,-150.879,-36.133
1641437127.411,52.734,27.344,-666.504,5.859,-2.441
1641437127.415,44.922,25.391,-468.262,20.508,-21.973
1641437127.419,-9.766,35.156,-517.578,-129.395,-80.566
1641437127.423,-6.348,37.598,-631.348,-148.438,-110.840
1641437127.427,48.828,35.645,-675.293,32.227,-66.895
1641437127.431,57.129,42.969,-422.852,113.281,3.906
1641437127.432,6.836,43.945,-364.746,-29.297,-11.719
1641437127.436,-13.184,35.645,-649.414,-126.465,-48.340
1641437127.440,30.762,39.062,-644.043,-13.672,-50.781
1641437127.444,60.059,43.945,-304.199,111.328,-27.832
1641437127.448,10.254,37.109,-278.320,-0.977,-51.270
1641437127.452,-31.738,31.250,-703.125,-140.137,-128.906
1641437127.455,-2.930,27.344,-850.586,-37.109,-83.496
1641437127.459,42.969,29.785,-353.516,154.785,-5.859
1641437127.463,27.344,36.621,-66.895,160.156,-2.930
1641437127.467,-17.090,35.645,-377.930,1.953,-12.207
1641437127.471,-3.906,30.762,-497.559,18.066,13.184
1641437127.475,39.551,31.738,-148.926,208.496,72.754
1641437127.492,30.762,32.227,-63.477,237.793,54.199
1641437127.496,-25.391,26.367,-281.250,55.176,30.762
1641437127.500,-22.949,27.344,-427.734,-14.160,41.016
1641437127.504,31.738,30.762,-351.562,118.652,66.406
1641437127.508,45.410,32.227,-170.898,207.520,79.102
1641437127.512,-5.371,31.250,-523.926,53.223,16.113
1641437127.515,-22.461,27.832,-768.555,-76.660,3.418
1641437127.519,36.621,36.133,-498.535,41.016,0.488
1641437127.523,64.453,34.668,-438.965,177.734,13.184
1641437127.527,16.113,28.320,-702.148,91.797,12.695
1641437127.531,-20.508,28.320,-901.855,-45.410,-4.883
1641437127.535,11.230,30.273,-967.285,24.902,-12.695
1641437127.538,55.664,32.715,-966.797,183.105,-21.484
1641437127.542,25.391,25.391,-968.750,159.668,-2.441
1641437127.546,-25.391,23.438,-969.727,-8.301,-6.348
1641437127.550,-8.789,32.715,-969.238,-12.695,-13.672
1641437127.554,40.527,39.062,-969.238,154.785,54.688
1641437127.558,41.016,38.086,-969.238,185.059,38.574
1641437127.561,-6.348,37.109,-969.238,15.625,-1.953
1641437127.565,-13.184,39.062,-969.238,-55.664,0.488
1641437127.569,34.668,43.457,-969.238,66.406,-25.391
1641437127.573,46.875,42.969,-969.238,119.629,-5.371
1641437127.577,-6.836,43.945,-969.238,-37.598,32.227
1641437127.581,-30.762,43.457,-969.238,-116.211,9.766
1641437127.582,0.488,46.387,-969.238,-0.488,24.902
1641437127.586,32.715,50.781,-969.238,138.184,40.527
1641437127.590,6.348,54.199,-969.238,83.008,19.043
1641437127.594,-32.227,56.641,-969.727,-84.961,52.246
1641437127.598,-8.789,54.199,-969.238,-47.852,72.266
1641437127.602,31.738,49.316,-969.238,110.352,62.500
1641437127.605,20.020,48.340,-970.215,99.121,101.562
1641437127.609,-23.438,52.246,-963.379,-58.594,26.855
1641437127.613,-17.090,47.363,-972.168,-91.309,-80.078
1641437127.617,28.809,46.875,-937.012,43.457,-42.969
1641437127.621,36.133,52.246,-654.297,96.680,73.242
1641437127.625,-14.160,45.898,-580.566,-58.594,100.098
1641437127.627,-28.320,41.016,-705.078,-158.691,31.738
1641437127.631,21.484,38.574,-483.887,-43.945,20.996
1641437127.635,44.434,35.156,-175.781,88.379,74.219
1641437127.639,-3.906,34.180,-201.172,3.418,98.633
1641437127.643,-31.738,35.156,-336.426,-140.137,45.410
1641437127.647,7.324,35.156,-317.383,-99.609,31.250
1641437127.650,37.598,38.086,-26.855,77.637,67.383
1641437127.654,-2.930,34.180,-32.227,34.668,51.270
1641437127.658,-48.828,25.391,-355.957,-193.359,38.574
1641437127.662,-23.438,23.438,-119.141,-211.914,11.230
1641437127.666,23.438,29.785,167.480,-97.656,13.184
1641437127.670,8.789,26.367,164.062,-133.789,34.180
1641437127.672,-41.504,22.949,122.070,-291.504,16.113
1641437127.676,-34.180,29.297,255.371,-262.207,50.781
1641437127.680,13.672,27.832,437.500,-68.359,57.129
1641437127.684,27.344,25.391,543.457,18.066,63.477
1641437127.688,-15.625,27.344,594.727,-117.676,64.453
1641437127.692,-25.879,23.438,398.926,-191.406,1.953
1641437127.695,22.949,20.020,320.801,-56.641,-33.691
1641437127.699,48.828,20.996,396.484,71.777,-20.996
1641437127.703,10.742,13.672,547.852,-10.742,31.250
1641437127.707,-16.113,13.184,714.844,-201.172,22.461
1641437127.711,11.719,19.531,624.023,-172.852,-54.199
1641437127.715,49.805,22.949,785.156,15.625,14.160
1641437127.717,32.227,29.785,979.492,-3.418,77.148
1641437127.721,-13.184,27.832,838.379,-205.078,57.129
1641437127.725,5.371,20.508,524.902,-204.102,27.832
1641437127.729,65.430,24.902,617.188,-49.805,31.250
1641437127.733,72.266,28.809,959.473,-57.129,41.992
1641437127.737,20.508,21.484,752.441,-212.402,-8.789
1641437127.740,21.484,18.555,385.742,-247.070,-20.020
1641437127.744,70.312,23.926,379.395,-88.867,-18.555
1641437127.748,89.844,25.879,815.918,32.227,23.926
1641437127.752,41.504,23.438,832.031,-81.055,-29.297
1641437127.756,14.160,24.414,560.059,-201.172,-71.777
1641437127.760,54.688,28.809,583.008,-105.957,-22.949
1641437127.761,82.031,34.180,789.062,48.828,-16.113
1641437127.765,43.457,38.086,756.836,-16.113,-12.207
1641437127.769,3.418,33.691,448.730,-183.105,-25.879
1641437127.773,27.344,29.297,405.762,-126.953,-12.695
1641437127.777,72.754,26.855,651.367,48.828,68.848
1641437127.781,55.176,25.879,598.633,34.668,62.988
1641437127.784,7.324,29.297,174.316,-137.695,-14.648
1641437127.788,21.484,23.926,163.574,-132.812,-29.785
1641437127.792,64.453,20.996,583.984,51.270,20.996
1641437127.796,67.383,27.344,630.859,124.023,10.742
1641437127.800,22.461,24.902,431.152,0.488,-32.715
1641437127.804,15.137,21.973,431.641,-58.594,-28.809
1641437127.821,53.223,25.879,600.586,90.332,-9.766
1641437127.825,65.430,30.762,624.512,202.148,-0.977
1641437127.829,14.648,26.855,389.160,64.453,-40.527
1641437127.833,-12.207,24.414,381.836,-71.777,-33.691
1641437127.837,22.949,25.879,531.738,27.832,-23.438
1641437127.841,53.223,26.367,385.254,165.039,-47.852
1641437127.844,23.926,31.250,227.539,100.098,-67.383
1641437127.848,-19.531,25.879,325.195,-44.922,-37.109
1641437127.852,-1.953,21.484,339.844,-8.301,-53.223
1641437127.856,39.062,26.855,323.730,145.020,-75.195
1641437127.860,24.414,26.855,327.148,148.926,-49.316
1641437127.864,-23.926,26.367,333.008,-21.484,-62.988
1641437127.867,-14.648,25.879,205.078,-60.547,-69.824
1641437127.871,34.668,32.227,248.047,110.352,-46.875
1641437127.875,38.086,41.016,334.473,208.008,-11.230
1641437127.879,-15.625,36.133,266.113,74.219,10.742
1641437127.883,-28.320,34.180,66.895,-13.184,-9.766
1641437127.887,11.719,33.203,-16.602,131.348,-28.809
1641437127.890,29.297,25.879,72.266,274.414,6.348
1641437127.894,-12.695,27.344,60.059,167.480,22.949
1641437127.898,-41.992,29.785,-73.730,33.203,-26.367
1641437127.902,-7.324,28.809,-321.777,104.492,-49.316
1641437127.906,34.180,28.809,-181.641,242.676,-60.547
1641437127.910,18.066,29.785,119.629,196.777,-28.320
1641437127.912,-17.090,30.273,-168.945,27.832,-24.902
1641437127.916,10.254,32.715,-389.160,51.270,-48.828
1641437127.920,63.965,40.039,-25.391,220.215,25.391
1641437127.924,50.781,33.691,135.254,242.188,13.184
1641437127.928,-4.883,23.926,-117.676,85.938,-40.039
1641437127.932,-0.977,31.738,-361.816,35.645,-67.871
1641437127.935,51.270,38.086,-306.641,186.035,-47.363
1641437127.939,62.988,36.621,-2.930,254.883,12.207
1641437127.943,10.254,31.250,-202.148,80.566,-0.977
1641437127.947,-3.418,29.785,-584.961,-28.320,-59.082
1641437127.951,44.922,34.180,-250.488,79.590,-49.805
1641437127.955,64.453,38.574,-12.207,178.711,-6.348
1641437127.973,22.461,37.109,-106.445,53.711,7.324
1641437127.977,-8.789,29.297,-427.734,-124.023,-50.781
1641437127.981,29.785,28.809,-438.965,-53.711,-60.547
1641437127.985,67.871,25.391,-153.809,117.188,5.859
1641437127.989,34.668,24.414,-250.977,84.473,-21.973
1641437127.993,-12.695,28.320,-554.199,-89.844,-114.258
1641437127.996,1.953,30.762,-585.449,-77.148,-114.258
1641437128.000,47.852,36.621,-292.969,105.469,-12.207
1641437128.004,49.316,35.156,-441.406,134.766,0.488
1641437128.008,-1.465,33.203,-705.078,-41.504,-55.176
1641437128.012,-1.465,33.691,-411.621,-115.723,-32.227
1641437128.016,45.898,33.203,-310.059,26.367,-12.207
1641437128.004,53.711,32.227,-263.672,126.465,-16.602
1641437128.008,10.254,24.902,-175.293,-4.395,-2.930
1641437128.012,-2.930,21.484,-275.879,-88.379,-37.598
1641437128.016,37.598,21.484,-383.789,13.672,-47.363
1641437128.020,60.059,22.461,-296.387,119.629,-18.555
1641437128.024,22.949,23.438,-288.086,55.176,-34.180
1641437128.027,-8.789,22.949,-494.141,-98.145,-77.637
1641437128.031,15.625,22.949,-510.254,-55.176,-115.723
1641437128.035,55.176,24.902,-250.488,102.539,-50.293
1641437128.039,35.156,23.926,-14.648,97.656,8.789
1641437128.043,-15.625,15.625,-125.000,-70.801,-27.832
1641437128.047,-0.488,16.602,-492.188,-95.215,-83.984
1641437128.047,49.316,25.391,-435.547,83.008,-32.715
1641437128.051,51.758,22.949,-8.789,142.090,13.184
1641437128.055,-0.977,16.113,-77.637,-13.672,-83.496
1641437128.059,-18.555,17.090,-587.891,-84.961,-157.227
1641437128.063,27.832,28.320,-623.047,60.059,-148.926
1641437128.067,53.711,30.762,-231.445,176.270,-106.934
1641437128.070,6.836,25.391,-414.551,50.293,-89.844
1641437128.074,-17.090,26.367,-585.938,-65.430,-74.707
1641437128.078,25.879,30.273,-384.766,65.430,-56.152
1641437128.082,58.594,32.715,-143.066,226.562,-20.996
1641437128.086,30.762,26.855,-155.762,189.453,29.785
1641437128.090,-4.395,21.484,-650.879,65.430,16.113
1641437128.091,22.461,18.066,-717.285,101.562,-53.711
1641437128.095,64.941,13.672,-159.668,268.555,-20.508
1641437128.099,44.434,19.531,-129.883,282.227,-14.648
1641437128.103,-7.324,29.297,-362.305,103.027,-29.297
1641437128.107,0.977,31.250,-311.523,43.457,24.414
1641437128.111,46.875,26.367,-221.680,183.105,43.945
1641437128.114,50.781,21.484,-345.703,246.582,7.324
1641437128.118,-7.812,17.090,-794.434,69.336,-18.066
1641437128.122,-19.531,19.531,-696.289,-43.457,21.484
1641437128.126,34.668,21.973,-450.195,67.871,7.812
1641437128.130,57.617,24.902,-494.629,181.641,-14.160
1641437128.134,19.531,28.809,-405.273,75.684,32.715
1641437128.137,-6.836,20.996,-391.602,-61.523,29.785
1641437128.141,28.320,20.996,-349.121,25.879,26.367
1641437128.145,70.312,30.273,-306.641,187.988,35.156
1641437128.149,44.922,32.715,-254.395,148.438,18.555
1641437128.153,3.418,32.715,-273.438,-16.113,5.371
1641437128.157,19.043,30.273,-483.398,3.418,-11.719
1641437128.160,65.918,35.645,-379.395,165.039,-20.508
1641437128.164,80.078,42.969,-61.523,206.055,41.016
1641437128.168,25.391,31.738,-142.578,41.992,15.137
1641437128.172,-3.906,22.949,-408.691,-51.270,-62.012
1641437128.176,43.457,27.344,-658.203,89.355,-58.105
1641437128.180,66.406,31.738,-367.676,181.152,10.254
1641437128.199,15.625,29.297,-174.805,34.668,-18.066
1641437128.203,-4.883,15.137,-500.977,-67.383,-89.844
1641437128.207,34.668,14.648,-376.465,46.875,-29.785
1641437128.211,59.570,33.691,-31.250,169.922,52.246
1641437128.215,22.949,37.598,-12.207,63.477,48.340
1641437128.219,-9.766,31.250,-370.605,-119.629,-3.418
1641437128.222,22.949,33.691,-761.230,-77.637,-52.734
1641437128.226,64.453,36.621,-282.715,90.332,-12.207
1641437128.230,46.387,33.691,151.367,80.566,3.906
1641437128.234,7.812,33.203,-154.297,-87.891,-63.965
1641437128.238,19.043,32.715,-181.152,-74.707,-86.426
1641437128.242,61.523,31.250,115.234,104.004,-90.332
1641437128.241,62.012,28.320,219.727,143.066,-40.527
1641437128.245,6.836,23.926,-3.906,-15.137,-61.523
1641437128.249,3.418,27.344,-115.234,-86.426,-104.980
1641437128.253,60.059,30.762,20.020,69.824,-73.730
1641437128.257,69.336,27.832,207.031,173.828,-39.062
1641437128.261,18.555,25.879,-6.836,27.832,-40.527
1641437128.264,4.883,28.809,-235.840,-75.195,-45.898
1641437128.268,50.781,31.250,-11.719,48.340,-37.598
1641437128.272,78.613,24.414,208.496,188.965,-15.625
1641437128.276,40.527,22.461,-149.414,124.512,-60.547
1641437128.280,8.301,31.738,-351.562,-11.230,-89.355
1641437128.284,34.180,34.668,24.414,46.875,-48.828
1641437128.287,69.336,32.715,112.793,193.359,-78.125
1641437128.291,61.035,32.715,154.785,181.641,-77.148
1641437128.295,20.020,29.785,122.559,7.812,-94.727
1641437128.299,26.855,28.809,-8.789,-50.781,-148.926
1641437128.303,77.148,30.273,-2.441,106.934,-122.559
1641437128.307,67.871,24.902,9.277,158.691,-62.012
1641437128.310,6.836,18.066,-110.840,-15.137,-52.734
1641437128.314,0.977,22.461,-236.328,-81.543,-51.758
1641437128.318,55.664,31.250,-213.379,54.199,-48.340
1641437128.322,72.754,34.180,2.441,151.855,-27.832
1641437128.326,17.090,35.645,146.973,24.902,-20.996
1641437128.330,-7.324,37.109,22.949,-101.074,-72.754
1641437128.331,32.715,32.715,-105.469,-6.348,-119.141
1641437128.335,52.246,26.855,4.883,139.648,-92.773
1641437128.339,18.555,26.367,172.363,101.562,-35.156
1641437128.343,-14.160,25.391,68.359,-41.992,-23.438
1641437128.347,6.836,26.855,-158.203,1.953,-46.875
1641437128.351,50.293,33.203,-254.395,186.035,-72.266
1641437128.354,36.621,35.645,-46.387,208.496,-54.688
1641437128.358,-15.625,31.738,67.871,45.898,-20.508
1641437128.362,-9.766,25.391,-41.504,0.000,-19.531
1641437128.366,41.992,27.344,151.855,150.391,-47.363
1641437128.370,48.340,27.344,517.578,212.402,-36.133
1641437128.374,1.465,24.902,359.375,59.082,-35.156
1641437128.377,1.465,21.973,-221.191,-30.762,-91.797
1641437128.381,59.082,23.438,-75.684,84.473,-88.867
1641437128.385,90.332,26.855,395.996,202.637,-54.688
1641437128.389,54.688,23.438,225.098,98.633,-77.148
1641437128.393,21.973,24.902,-4.395,-47.852,-95.703
1641437128.397,38.574,26.855,-137.695,0.977,-90.820
1641437128.400,83.984,31.250,-20.508,132.812,-54.688
1641437128.404,61.035,31.250,-19.043,82.031,-28.809
1641437128.408,12.695,29.297,-383.789,-91.309,-88.379
1641437128.412,40.039,37.109,-187.012,-64.941,-60.059
1641437128.416,68.359,40.039,131.348,95.215,0.977
1641437128.420,48.340,26.367,58.594,110.352,-1.465
1641437128.421,4.883,20.508,-90.332,-37.109,1.465
1641437128.425,10.254,30.762,-73.730,-73.242,-31.738
1641437128.429,50.781,30.762,-3.906,79.590,-64.453
1641437128.433,50.293,30.273,-11.719,169.922,-24.902
1641437128.437,-0.488,30.273,-45.410,30.273,-59.570
1641437128.441,-18.066,26.855,-157.227,-65.918,-127.930
1641437128.444,23.438,28.320,-127.441,63.477,-87.891
1641437128.448,50.781,29.297,-4.883,193.848,-52.734
1641437128.452,16.113,26.855,44.922,79.590,-44.922
1641437128.456,-14.160,19.531,0.977,-75.684,-107.910
1641437128.460,12.207,20.020,-142.090,-1.465,-145.508
1641437128.464,54.688,30.762,-74.219,168.457,-111.328
1641437128.482,37.109,34.668,105.957,128.418,-77.637
1641437128.486,-4.395,33.691,39.551,-78.613,-64.941
1641437128.490,16.602,35.156,-292.969,-91.797,-114.258
1641437128.494,57.617,37.109,-394.531,72.266,-97.168
1641437128.498,48.828,34.180,-23.926,89.355,-8.789
1641437128.502,3.906,29.785,-54.688,-63.477,-17.578
1641437128.505,-0.488,32.715,-402.832,-118.164,-58.105
1641437128.509,38.086,31.738,-379.395,26.367,-42.480
1641437128.513,50.781,34.180,88.867,161.133,18.555
1641437128.517,1.953,36.133,145.020,51.270,10.742
1641437128.521,-23.926,31.250,-174.805,-56.641,-54.199
1641437128.525,19.531,32.227,-179.688,64.453,-51.758
1641437128.527,49.316,30.762,144.043,226.074,14.160
1641437128.531,7.812,24.414,141.602,169.434,3.418
1641437128.535,-31.738,20.020,-114.258,18.066,-48.340
1641437128.539,-5.859,19.531,-61.523,71.289,15.137
1641437128.543,39.551,28.809,128.418,224.121,76.660
1641437128.547,20.020,35.645,1.953,219.238,77.637
1641437128.550,-29.785,32.715,-338.379,43.945,23.438
1641437128.554,-15.625,29.785,-380.859,4.395,-0.977
1641437128.558,28.320,33.691,-56.641,171.387,48.340
1641437128.562,20.996,33.203,99.121,219.727,70.312
1641437128.566,-30.273,26.367,-453.613,48.340,-7.812
1641437128.570,-26.855,27.344,-675.781,-30.273,-20.020
1641437128.572,21.484,25.391,-208.496,106.445,39.551
1641437128.576,36.133,26.367,-54.199,211.914,50.781
1641437128.580,-0.488,32.715,-148.438,81.055,46.387
1641437128.584,-22.949,36.133,-238.770,-50.781,8.789
1641437128.588,13.184,37.598,-190.430,49.805,8.301
1641437128.592,50.293,39.551,-224.609,192.871,54.688
1641437128.595,17.090,42.480,-326.172,128.418,44.922
1641437128.599,-23.926,43.457,-427.734,-32.715,-1.953
1641437128.603,-0.977,38.086,-333.984,16.113,13.672
1641437128.607,42.969,30.273,-282.715,199.219,8.301
1641437128.611,28.809,29.297,-516.602,210.938,7.812
1641437128.615,-19.043,25.391,-413.574,35.645,-2.930
1641437128.617,-14.648,23.438,-283.203,-8.789,2.441
1641437128.621,36.133,36.621,-219.238,151.855,20.020
1641437128.625,38.574,42.480,-109.375,220.703,1.465
1641437128.629,-14.160,39.062,-108.398,76.660,-25.879
1641437128.633,-19.531,37.598,-198.730,8.789,-57.129
1641437128.637,26.367,36.621,-235.352,156.738,-8.301
1641437128.640,41.992,35.645,-103.516,296.387,29.785
1641437128.644,-11.230,33.691,62.988,208.496,12.207
1641437128.648,-40.527,31.250,-28.809,85.449,-15.137
1641437128.652,-3.418,27.832,-274.414,155.273,32.715
1641437128.656,37.598,26.855,-96.680,292.969,88.379
1641437128.660,17.090,32.715,169.922,246.094,63.477
1641437128.661,-29.297,35.156,17.090,53.223,1.465
1641437128.665,-8.301,34.668,-99.609,42.969,-15.625
1641437128.669,45.410,37.598,243.164,188.477,23.926
1641437128.673,41.504,37.109,376.953,181.641,32.227
1641437128.677,-13.184,33.691,72.754,-15.625,-6.836
1641437128.681,-10.742,31.250,-133.301,-85.449,19.043
1641437128.684,44.434,30.762,-114.258,60.547,48.828
1641437128.688,51.270,34.668,145.996,131.836,73.242
1641437128.692,5.371,27.832,-110.352,-33.691,37.598
1641437128.696,1.953,23.438,-530.273,-117.676,-33.691
1641437128.700,47.852,35.645,-143.066,29.785,4.395
1641437128.704,64.941,41.992,97.656,174.805,13.672
1641437128.707,20.996,46.387,-13.184,96.680,16.113
1641437128.711,-11.719,43.457,-248.535,-40.527,8.789
1641437128.715,17.090,33.691,-189.941,46.387,11.230
1641437128.719,54.688,29.785,109.375,211.426,43.457
1641437128.723,42.480,32.715,17.090,179.688,41.992
1641437128.727,2.441,32.715,-227.539,-0.977,5.859
1641437128.730,11.719,30.273,-289.062,-18.066,-29.297
1641437128.734,60.547,31.738,-195.801,151.367,-40.527
1641437128.738,62.500,32.715,-170.410,192.383,-39.062
1641437128.742,9.277,36.133,-147.949,31.250,25.391
1641437128.746,0.977,35.645,-46.387,-40.527,19.043
1641437128.750,48.828,25.879,-62.500,96.680,-34.180
1641437128.767,70.312,24.414,-89.844,189.453,-35.645
1641437128.771,21.973,30.273,-6.348,28.809,-28.809
1641437128.775,-9.766,30.762,-56.152,-106.445,9.766
1641437128.779,30.762,33.203,-131.348,-20.020,9.766
1641437128.783,66.406,32.227,-61.523,98.633,9.277
1641437128.787,37.109,26.367,-108.887,24.414,1.465
1641437128.790,0.000,29.297,-248.535,-132.812,0.000
1641437128.794,21.484,30.762,-342.773,-88.379,-3.418
1641437128.798,62.988,27.344,-427.246,63.965,-2.930
1641437128.802,42.969,28.320,-139.160,50.781,25.391
1641437128.806,-9.277,25.391,-83.008,-100.586,-16.602
1641437128.810,6.836,25.391,-257.812,-110.840,-24.414
1641437128.797,57.617,27.344,-75.684,61.523,5.371
1641437128.801,49.316,29.297,213.379,127.441,49.316
1641437128.805,-7.812,25.879,27.832,-31.250,6.348
1641437128.809,-13.672,18.066,-300.781,-94.727,-65.918
1641437128.813,40.039,26.367,-130.371,66.895,-62.012
1641437128.817,58.105,35.156,4.883,181.152,1.953
1641437128.820,15.625,31.738,-212.402,52.734,-37.109
1641437128.824,-2.441,27.344,-411.133,-67.871,-69.336
1641437128.828,35.645,27.832,-215.820,28.809,-8.789
1641437128.832,62.012,27.344,161.133,170.898,8.789
1641437128.836,25.879,24.414,119.141,104.492,0.488
1641437128.840,-16.113,29.297,-519.531,-72.754,-44.434
1641437128.857,-0.488,29.297,-578.125,-39.551,-50.293
1641437128.861,41.992,23.926,4.395,152.832,6.836
1641437128.865,38.086,26.855,51.270,177.734,6.348
1641437128.869,-6.348,28.809,-160.645,14.160,16.602
1641437128.873,0.977,30.273,-219.727,-12.207,18.066
1641437128.877,46.875,31.250,-221.191,146.973,14.160
1641437128.880,46.387,31.250,-294.922,223.145,32.227
1641437128.884,-1.465,29.297,-407.715,79.102,22.949
1641437128.888,-10.254,25.391,-247.559,-13.672,46.387
1641437128.892,29.297,26.367,-166.504,96.680,58.105
1641437128.896,43.457,25.391,-159.668,212.891,46.387
1641437128.900,-0.977,28.809,-91.797,116.211,14.160
1641437128.887,-31.738,33.691,-118.164,-34.180,-0.977
1641437128.891,3.418,35.156,-66.406,42.969,45.410
1641437128.895,45.898,38.574,28.320,203.613,55.664
1641437128.899,18.555,36.621,67.871,165.527,40.527
1641437128.903,-19.531,34.180,-22.949,16.113,31.250
1641437128.907,1.953,33.691,-264.160,33.203,10.254
1641437128.910,47.363,35.156,-170.410,194.824,34.180
1641437128.914,37.109,38.086,107.422,208.008,54.688
1641437128.918,-11.719,39.551,-9.766,29.297,17.090
1641437128.922,-7.812,28.809,-177.734,-17.090,11.719
1641437128.926,35.645,25.879,-366.699,131.836,4.395
1641437128.930,39.551,28.809,-179.688,212.891,45.410
1641437128.932,-10.254,26.367,40.527,71.289,60.547
1641437128.936,-23.926,25.391,-381.836,-31.250,-64.941
1641437128.940,22.461,29.297,-384.766,85.449,-65.918
1641437128.944,51.270,30.762,38.574,214.355,-25.391
1641437128.948,17.090,30.273,97.656,120.605,-22.949
1641437128.952,-9.277,30.762,-353.516,-40.039,-32.227
1641437128.955,17.090,29.297,-544.922,15.625,-54.199
1641437128.959,55.176,26.855,-65.918,175.293,11.719
1641437128.963,33.691,28.320,54.688,142.578,32.227
1641437128.967,-17.090,33.203,-303.223,-44.434,5.859
1641437128.971,-2.930,35.156,-416.504,-55.664,-7.324
1641437128.975,47.363,32.227,-128.906,115.723,-32.227
1641437129.007,40.527,30.762,-48.340,150.391,8.789
1641437129.011,-11.719,29.785,-255.371,-10.254,60.059
1641437129.015,-9.766,31.250,-379.883,-80.566,-9.277
1641437129.019,34.668,33.691,-334.961,55.664,-9.766
1641437129.023,47.852,30.273,-190.430,176.270,73.242
1641437129.027,-1.953,23.926,-482.910,48.340,29.785
1641437129.030,-18.555,25.391,-748.535,-67.383,-16.602
1641437129.034,43.457,27.344,-316.895,48.828,49.805
1641437129.038,65.918,33.691,-89.844,191.895,105.957
1641437129.042,8.301,41.992,-303.711,121.582,74.707
1641437129.046,-20.020,43.457,-469.727,-23.438,26.367
1641437129.050,13.672,41.016,-420.898,35.645,54.688
1641437129.037,51.270,41.016,-352.539,191.895,76.172
1641437129.041,40.039,38.574,-343.750,180.176,75.195
1641437129.045,-6.836,33.691,-429.199,16.602,49.805
1641437129.049,2.441,33.203,-452.148,-12.695,50.293
1641437129.053,61.523,29.785,-334.961,143.066,88.867
1641437129.057,60.547,27.344,-231.445,202.148,114.258
1641437129.060,8.301,33.691,-347.656,23.438,73.730
1641437129.064,0.977,36.133,-500.488,-72.266,26.367
1641437129.068,43.457,37.109,-396.484,53.711,54.199
1641437129.072,60.547,35.645,-193.359,152.344,96.191
1641437129.076,9.277,30.273,-86.426,17.090,128.418
1641437129.080,-17.578,27.832,-145.020,-121.094,109.375
1641437129.082,27.832,28.809,-370.117,-24.902,43.457
1641437129.086,68.359,30.762,-436.035,113.770,55.176
1641437129.090,37.598,32.715,-98.633,55.176,84.961
1641437129.094,2.441,24.902,-105.957,-113.281,47.363
1641437129.098,35.645,25.879,-191.895,-80.566,28.809
1641437129.102,79.102,34.668,-59.570,85.449,75.684
1641437129.105,54.199,34.180,67.383,83.496,105.957
1641437129.109,1.953,32.715,44.922,-95.703,74.707
1641437129.113,14.160,32.715,-424.316,-152.832,0.977
1641437129.117,63.965,37.598,-327.637,6.348,10.742
1641437129.121,69.336,41.504,254.395,88.379,97.168
1641437129.125,21.484,35.156,95.215,-70.312,57.617
1641437129.127,14.160,31.250,-172.852,-164.551,-32.227
1641437129.131,65.430,38.086,23.438,-19.531,32.227
1641437129.135,99.609,40.039,291.992,132.812,102.539
1641437129.139,39.551,34.180,149.414,25.391,43.945
1641437129.143,-13.184,28.320,-116.699,-130.859,30.273
1641437129.147,29.297,29.297,-128.418,-43.945,63.477
1641437129.150,68.848,33.203,78.125,105.957,17.578
1641437129.154,41.504,35.645,57.129,60.547,0.488
1641437129.158,-8.789,32.227,-225.586,-107.910,-20.020
1641437129.162,7.324,34.180,-45.898,-105.957,-18.066
1641437129.166,56.641,37.109,135.742,41.504,28.809
1641437129.170,52.734,37.598,19.043,48.340,47.852
1641437129.171,6.836,31.250,-116.211,-123.535,45.410
1641437129.175,7.812,26.367,-188.965,-178.711,-18.555
1641437129.179,58.105,32.715,-113.770,-21.973,6.348
1641437129.183,74.707,36.133,-118.164,76.172,67.871
1641437129.187,23.926,33.691,-267.090,-57.617,45.898
1641437129.191,2.441,32.227,-412.109,-145.996,32.715
1641437129.194,47.852,34.180,-485.840,-9.277,17.578
1641437129.198,75.195,38.086,-416.504,138.672,39.551
1641437129.202,39.551,38.086,-301.270,70.801,62.988
1641437129.206,-0.977,34.668,-312.012,-71.777,6.348
1641437129.210,19.531,28.320,-447.266,-4.395,-33.203
1641437129.214,55.664,27.344,-302.246,162.598,17.090
1641437129.217,33.691,32.715,-91.309,145.508,54.199
1641437129.221,-11.719,39.062,-149.414,-19.043,60.059
1641437129.225,3.906,37.598,-425.781,-23.438,33.203
1641437129.229,54.688,37.109,-543.457,137.207,-21.973
1641437129.233,49.316,36.621,-185.059,169.922,-12.695
1641437129.237,-3.906,28.809,-225.586,15.625,7.812
1641437129.240,-13.184,24.902,-618.164,-68.848,11.719
1641437129.244,29.297,30.273,-620.117,46.387,6.348
1641437129.248,46.875,31.738,-185.059,137.695,19.043
1641437129.252,-0.977,23.438,-126.465,5.371,-40.527
1641437129.256,-24.902,24.414,-382.812,-107.910,-59.570
1641437129.260,13.184,30.273,-328.125,-29.785,9.277
1641437129.263,47.852,35.156,-67.383,92.285,49.316
1641437129.267,13.672,37.598,-65.430,28.320,33.691
1641437129.271,-26.367,34.180,-366.211,-145.508,-20.508
1641437129.275,8.301,32.227,-431.641,-107.910,-55.176
1641437129.279,51.758,30.273,-173.340,57.129,-14.160
1641437129.283,28.809,28.320,-155.273,48.828,34.180
1641437129.286,-13.672,28.320,-709.961,-122.559,7.324
1641437129.290,6.836,35.645,-873.047,-146.484,1.953
1641437129.294,58.105,40.039,-333.984,22.949,50.781
1641437129.298,59.570,31.250,-194.824,83.984,91.797
1641437129.302,13.184,31.250,-401.855,-68.848,73.242
1641437129.306,9.766,41.504,-411.621,-115.723,33.203
1641437129.337,52.734,38.086,-294.434,37.598,64.941
1641437129.341,62.500,35.645,-270.020,153.809,73.730
1641437129.345,14.160,33.691,-388.672,24.902,40.527
1641437129.349,-5.371,27.832,-466.797,-109.863,63.965
1641437129.353,28.809,27.344,-404.297,0.000,45.898
1641437129.357,59.082,29.297,-500.488,152.344,2.930
1641437129.360,25.879,27.832,-646.484,101.562,10.254
1641437129.364,-17.578,19.043,-558.105,-62.500,-13.672
1641437129.368,4.883,14.648,-535.645,-20.020,-25.391
1641437129.372,49.805,20.996,-466.797,155.273,-6.348
1641437129.376,38.086,24.414,-348.633,161.133,11.719
1641437129.380,-12.207,25.391,-423.828,-7.812,-20.996
1641437129.367,-9.766,29.785,-496.094,-43.945,-22.949
1641437129.371,33.203,34.180,-407.715,118.164,31.738
1641437129.375,42.480,36.621,-275.391,187.500,51.270
1641437129.379,2.930,34.668,-334.473,29.297,62.988
1641437129.383,-4.883,26.367,-493.652,-54.199,68.848
1641437129.387,32.715,22.461,-598.145,72.266,38.574
1641437129.390,46.387,28.809,-539.551,193.848,41.016
1641437129.394,9.277,31.250,-390.137,112.305,102.539
1641437129.398,-10.742,29.785,-585.449,-16.602,89.355
1641437129.402,26.855,30.762,-664.551,62.012,32.715
1641437129.406,59.082,29.297,-426.758,210.938,48.828
1641437129.410,36.621,29.785,-319.336,180.664,69.824
1641437129.412,-6.836,31.250,-440.430,28.809,22.949
1641437129.416,6.836,28.809,-839.355,28.320,-45.898
1641437129.420,56.152,29.785,-563.965,205.078,5.859
1641437129.424,46.387,34.180,-23.438,262.695,57.617
1641437129.428,-8.301,30.762,-199.219,109.375,12.207
1641437129.432,-15.137,27.832,-458.008,48.340,-12.207
1641437129.435,28.809,33.203,-390.625,191.406,-18.555
1641437129.439,33.203,32.227,-94.727,236.816,2.930
1641437129.443,-19.043,27.344,-254.395,49.805,-3.906
1641437129.447,-28.809,29.785,-561.035,-50.781,-29.297
1641437129.451,15.625,34.668,-132.812,52.246,36.133
1641437129.455,43.457,35.156,135.742,153.320,80.566
1641437129.457,10.742,34.668,-44.434,41.992,37.598
1641437129.461,-21.484,32.715,-284.668,-123.535,-29.785
1641437129.465,8.789,25.391,-308.105,-63.477,-36.621
1641437129.469,51.758,25.879,-80.078,104.492,39.551
1641437129.473,36.133,31.250,-70.801,92.285,54.688
1641437129.477,-10.742,30.762,-317.383,-82.520,20.508
1641437129.480,3.906,27.832,-432.129,-101.562,-8.789
1641437129.484,54.688,29.785,-208.008,77.148,6.836
1641437129.488,47.363,30.762,-273.438,112.793,11.230
1641437129.492,0.000,33.691,-413.086,-56.641,-20.020
1641437129.496,-0.977,36.133,-220.703,-108.887,1.465
1641437129.500,44.434,35.156,-175.293,27.832,36.621
1641437129.503,66.406,33.203,-53.711,129.395,62.012
1641437129.507,22.461,26.855,1.465,5.371,53.711
1641437129.511,-8.301,25.879,-110.840,-107.422,26.855
1641437129.515,33.203,30.273,-172.852,-10.254,10.742
1641437129.519,67.383,34.668,-128.418,121.582,69.824
1641437129.523,30.273,33.203,-173.828,60.059,62.012
1641437129.526,-12.207,32.715,-347.168,-104.492,-6.348
1641437129.530,15.625,32.227,-471.191,-76.660,-3.906
1641437129.534,55.176,29.297,-533.203,67.383,-0.488
1641437129.538,39.062,27.344,-181.152,69.336,29.785
1641437129.542,-0.488,25.879,-60.547,-78.125,45.898
1641437129.546,10.742,27.832,-291.504,-104.980,2.930
1641437129.592,56.152,32.227,-130.371,65.918,-0.488
1641437129.596,55.664,33.691,85.938,104.492,0.000
1641437129.600,4.883,31.738,-96.191,-81.543,-59.570
1641437129.604,-1.953,33.691,-262.695,-149.902,-82.031
1641437129.608,47.363,33.203,-173.340,-17.578,-33.203
1641437129.612,62.988,33.203,-97.168,77.148,3.418
1641437129.615,15.625,28.320,-258.301,-48.340,-27.832
1641437129.619,-7.812,17.090,-680.176,-177.246,-67.383
1641437129.623,37.598,22.461,-660.156,-77.148,-64.941
1641437129.627,72.266,30.762,-83.496,76.172,-46.387
1641437129.631,39.062,25.879,-77.637,29.785,-28.809
1641437129.635,5.859,25.879,-374.512,-129.395,-25.879
1641437129.596,29.297,28.320,-322.754,-106.934,-24.902
1641437129.600,75.684,27.344,-106.934,62.988,12.695
1641437129.604,65.430,28.320,-101.074,76.172,53.223
1641437129.608,12.695,26.855,-323.242,-97.168,6.348
1641437129.612,11.719,25.879,-395.020,-148.438,-32.715
1641437129.616,54.199,21.973,-333.496,9.277,-48.340
1641437129.619,59.570,19.043,-385.742,82.031,-52.734
1641437129.623,11.719,24.902,-491.699,-64.941,-41.504
1641437129.627,3.418,30.273,-459.961,-138.672,-40.039
1641437129.631,49.316,28.809,-362.793,-17.090,-65.430
1641437129.635,64.941,31.250,-320.312,109.863,-28.809
1641437129.639,21.973,30.762,-294.922,19.043,24.902
1641437129.637,-9.766,27.344,-360.352,-133.789,-44.434
1641437129.641,11.719,29.785,-367.188,-51.758,-60.547
1641437129.645,46.875,26.855,-318.359,114.258,-22.949
1641437129.649,22.461,23.438,-296.387,85.938,-12.695
1641437129.653,-20.508,30.273,-306.641,-46.875,-29.785
1641437129.657,9.277,32.227,-473.633,-13.672,-27.832
1641437129.660,43.457,24.902,-568.848,151.855,-16.113
1641437129.664,22.461,21.484,-744.141,190.430,-49.805
1641437129.668,-17.090,25.391,-653.320,39.551,-44.922
1641437129.672,-20.996,24.414,-417.969,-23.926,12.695
1641437129.676,22.949,23.438,-347.656,115.723,7.812
1641437129.680,34.668,25.879,-209.961,196.777,-1.953
1641437129.683,-18.555,20.996,-270.508,47.852,-5.371
1641437129.687,-24.902,16.602,-481.934,-56.152,-22.461
1641437129.691,23.438,22.949,-696.777,55.664,-30.273
1641437129.695,45.410,25.879,-676.758,177.246,-29.785
1641437129.699,14.160,28.809,-254.395,103.516,7.812
1641437129.703,-14.160,33.691,-270.996,-31.250,-4.883
1641437129.706,13.672,35.156,-416.992,29.297,1.953
1641437129.710,50.293,35.645,40.039,184.570,99.609
1641437129.714,25.391,36.133,211.914,144.043,94.238
1641437129.718,-28.320,27.344,-177.246,-41.504,23.926
1641437129.722,-12.695,25.879,-354.980,-46.875,19.043
1641437129.726,43.945,33.203,9.766,142.578,58.594
1641437129.742,44.922,34.180,151.855,205.566,95.215
1641437129.746,-7.324,32.227,-96.191,46.875,38.086
1641437129.750,-19.043,30.762,-147.461,-2.930,14.160
1641437129.754,34.180,32.715,-74.707,141.602,21.484
1641437129.758,49.805,30.762,-3.418,243.164,36.133
1641437129.762,-3.418,24.902,-296.387,120.605,33.203
1641437129.765,-19.043,25.879,-564.941,-15.625,20.996
1641437129.769,23.926,28.320,-180.176,56.152,36.133
1641437129.773,53.223,26.855,-14.648,188.965,26.367
1641437129.777,17.090,28.320,-161.133,126.465,4.395
1641437129.781,-21.484,27.344,-271.484,-18.555,-23.926
1641437129.785,5.371,25.879,-225.098,22.461,-18.555
1641437129.787,46.387,26.855,-125.000,161.133,-3.906
1641437129.791,32.715,30.762,-96.680,138.184,-16.602
1641437129.795,-5.371,34.180,-120.605,-33.203,-32.715
1641437129.799,4.883,32.227,-162.598,-71.289,-5.371
1641437129.803,48.340,27.832,-142.090,74.707,8.301
1641437129.807,57.617,23.438,-115.234,123.535,29.785
1641437129.810,14.648,25.391,-259.277,-41.016,23.438
1641437129.814,9.277,29.785,-455.078,-128.906,-18.066
1641437129.818,57.617,32.715,-486.328,-1.953,-14.648
1641437129.822,76.660,35.645,-525.391,106.934,-5.859
1641437129.826,38.086,39.062,-312.012,-21.973,28.320
1641437129.830,14.648,32.715,-275.879,-154.297,26.855
1641437129.832,49.805,29.785,-338.379,-52.246,-6.348
1641437129.836,83.008,35.645,-133.789,91.797,-19.531
1641437129.840,50.781,30.762,-31.250,21.484,-20.996
1641437129.844,11.230,24.902,-215.820,-162.109,-39.551
1641437129.848,26.367,27.344,-396.484,-145.508,-47.852
1641437129.852,65.918,34.668,-355.957,33.203,-44.434
1641437129.855,47.363,38.086,-293.457,53.223,-16.602
1641437129.859,-7.812,29.785,-312.012,-93.750,5.371
1641437129.863,3.418,25.391,-645.996,-115.723,-60.059
1641437129.867,49.805,27.344,-609.863,46.875,-53.711
1641437129.871,53.711,29.785,-51.758,159.180,28.809
1641437129.875,-0.977,28.320,-109.863,34.180,0.488
1641437129.876,-14.648,22.461,-368.652,-49.316,-43.945
1641437129.880,32.227,20.508,-159.180,76.172,-35.645
1641437129.884,55.176,26.367,76.172,203.125,8.301
1641437129.888,10.254,31.738,-133.789,117.676,-22.949
1641437129.892,-26.367,29.785,-377.930,-14.160,-74.707
1641437129.896,11.719,30.273,-300.781,73.730,-26.367
1641437129.899,57.129,35.156,-55.176,212.402,24.414
1641437129.903,26.855,36.133,-64.453,159.668,12.207
1641437129.907,-25.391,31.738,-467.285,-14.648,-65.430
1641437129.911,0.977,25.879,-317.383,-30.762,-59.570
1641437129.915,47.852,28.320,60.547,117.676,6.348
1641437129.919,38.574,34.668,48.828,133.789,30.762
1641437129.922,-15.137,30.273,-218.750,-43.945,-15.137
1641437129.926,-13.184,29.785,-214.844,-104.492,-1.953
1641437129.930,38.086,33.203,-146.973,36.621,0.000
1641437129.934,48.340,33.203,-191.895,121.582,21.973
1641437129.938,-0.488,30.762,-247.070,-12.695,36.133
1641437129.942,-21.484,29.297,-428.711,-114.258,-13.672
1641437129.945,22.461,26.855,-411.133,-6.836,11.230
1641437129.949,48.340,21.973,-433.105,114.746,31.738
1641437129.953,8.789,27.832,-442.871,40.527,58.594
1641437129.957,-26.855,33.691,-293.457,-108.398,62.012
1641437129.961,-0.977,34.180,-354.980,-52.246,52.246
1641437129.965,42.480,35.156,-213.867,118.652,64.453
1641437129.967,22.461,37.598,-14.648,97.656,92.773
1641437129.971,-22.461,32.227,-66.406,-67.383,85.449
1641437129.975,-1.953,23.926,-283.203,-75.195,17.090
1641437129.979,50.293,31.738,-239.258,91.309,18.066
1641437129.983,55.664,34.180,22.461,149.902,49.316
1641437129.987,7.812,23.926,-146.973,-4.883,12.207
1641437129.990,4.883,23.438,-455.078,-75.195,-27.832
1641437129.994,55.664,33.203,-487.305,58.594,-3.906
1641437129.998,67.871,38.086,-31.250,157.227,79.590
1641437130.002,20.508,35.645,114.258,-1.953,68.848
1641437130.006,12.695,36.621,-236.816,-152.832,-20.020
1641437130.010,52.734,40.039,-221.191,-55.176,-13.672
1641437130.012,80.566,46.387,-7.324,71.777,58.594
1641437130.016,55.664,44.434,-61.523,-0.977,46.875
1641437130.020,31.250,35.645,-398.438,-166.992,-28.320
1641437130.024,54.199,30.762,-495.117,-146.973,-6.836
1641437130.028,82.520,31.738,-315.918,-1.465,2.930
1641437130.032,70.801,35.645,-434.082,-8.301,-21.484
1641437130.035,18.066,31.738,-816.406,-176.270,-80.566
1641437130.039,13.184,30.273,-907.715,-210.938,-139.160
1641437130.043,57.129,36.133,-434.082,-38.086,-56.641
1641437130.047,56.641,35.156,-247.070,32.715,-4.395
1641437130.051,4.883,35.645,-487.305,-132.324,-66.895
1641437130.055,-7.812,32.227,-514.160,-212.402,-117.676
1641437130.072,34.668,28.809,-326.172,-74.219,-73.730
1641437130.076,52.246,27.344,-182.129,40.039,28.320
1641437130.080,10.254,23.926,-231.934,-96.680,14.648
1641437130.084,-10.742,29.785,-317.383,-240.723,-49.805
1641437130.088,29.297,35.156,-229.492,-145.508,-40.527
1641437130.092,59.082,33.691,-233.398,-8.301,-8.301
1641437130.095,30.762,32.227,-334.961,-72.266,-20.508
1641437130.099,-3.906,35.156,-287.598,-250.000,-76.172
1641437130.103,11.719,37.109,-284.180,-238.281,-110.840
1641437130.107,56.152,34.668,-281.738,-53.711,-87.402
1641437130.111,51.270,29.297,-217.285,-9.766,-51.758
1641437130.115,1.465,36.621,4.395,-130.371,-6.836
1641437130.117,-2.930,42.480,9.766,-134.766,-31.250
1641437130.121,39.551,41.992,29.785,48.340,-55.664
1641437130.125,48.340,41.504,203.125,165.527,-42.480
1641437130.129,-0.977,41.504,213.379,50.781,-60.547
1641437130.133,-13.672,41.016,111.816,-5.371,-47.363
1641437130.137,34.180,37.598,53.223,162.109,-4.883
1641437130.140,51.270,43.457,163.086,328.125,12.207
1641437130.144,10.742,38.574,259.766,258.789,-18.555
1641437130.148,-5.859,25.879,125.488,124.023,-20.508
1641437130.152,5.859,30.273,-167.480,171.875,-59.570
1641437130.156,28.320,43.945,71.289,285.645,-45.898
1641437130.160,13.672,47.852,368.164,236.328,9.277
1641437130.163,-26.367,43.945,165.527,58.594,7.324
1641437130.167,-12.207,42.480,53.711,24.414,-0.488
1641437130.171,20.508,41.992,329.102,149.902,-0.488
1641437130.175,14.160,40.039,482.910,162.109,37.598
1641437130.179,-32.227,33.203,165.039,-19.531,12.207
1641437130.183,-34.668,25.391,-84.961,-84.473,16.602
1641437130.186,20.020,25.879,15.625,67.871,68.848
1641437130.190,34.180,36.621,290.527,157.227,79.102
1641437130.194,-8.301,40.527,60.547,8.789,39.062
1641437130.198,-23.438,40.039,-378.418,-106.934,13.672
1641437130.202,19.531,39.551,-94.238,5.371,10.742
1641437130.206,49.316,39.551,172.363,139.648,47.852
1641437130.208,10.254,38.574,113.770,59.570,94.727
1641437130.212,-27.832,27.344,-190.430,-94.238,71.289
1641437130.216,7.324,23.926,-274.414,-25.391,67.383
1641437130.220,47.363,34.180,-20.020,146.484,96.680
1641437130.224,28.320,39.551,-62.012,125.488,97.656
1641437130.228,-11.719,38.086,-346.191,-42.969,85.938
1641437130.231,1.953,34.668,-454.102,-62.012,65.430
1641437130.235,48.340,36.621,-201.660,84.473,82.520
1641437130.239,44.922,37.598,-417.480,103.027,96.191
1641437130.243,-2.930,36.133,-781.250,-84.473,41.504
1641437130.247,-7.324,32.227,-526.367,-168.457,61.523
1641437130.251,44.922,27.832,-407.227,-37.598,94.727
1641437130.252,62.012,27.832,-324.219,56.152,63.477
1641437130.256,10.742,31.738,-315.918,-81.543,57.129
1641437130.260,-18.555,33.203,-460.449,-202.148,48.828
1641437130.264,26.367,37.598,-518.555,-98.633,39.062
1641437130.268,72.266,43.457,-464.355,37.109,59.570
1641437130.272,34.668,41.992,-453.125,-32.715,17.578
1641437130.275,-18.555,35.645,-611.816,-197.754,-22.949
1641437130.279,7.324,28.320,-747.070,-168.945,1.465
1641437130.283,52.246,26.367,-826.172,-34.668,-16.602
1641437130.287,32.227,29.297,-588.867,-83.984,-53.223
1641437130.291,-17.578,30.762,-445.312,-284.180,-68.359
1641437130.295,-5.371,34.668,-541.016,-361.816,-80.566
1641437130.327,44.922,39.062,-429.688,-275.391,-102.051
1641437130.331,41.504,37.109,-224.121,-285.645,-76.172
1641437130.335,-11.719,30.762,-356.934,-486.816,-106.934
1641437130.339,-20.020,23.926,-641.113,-558.105,-157.227
1641437130.343,23.438,23.926,-579.590,-368.652,-140.137
1641437130.347,36.621,27.832,-477.539,-169.922,-112.793
1641437130.350,-11.719,28.809,-543.457,-190.918,-132.324
1641437130.354,-41.016,28.320,-841.797,-220.215,-142.090
1641437130.358,-1.465,32.227,-831.543,-35.156,-106.445
1641437130.362,35.645,34.180,-219.238,187.500,-31.250
1641437130.366,1.953,30.273,-114.746,206.543,-23.438
1641437130.370,-33.203,32.227,-344.238,94.238,-51.270
1641437130.341,-13.672,31.738,-262.207,159.180,-28.809
1641437130.345,24.414,27.832,-25.391,381.836,4.395
1641437130.349,17.578,31.738,-29.785,432.129,22.949
1641437130.353,-26.855,37.109,-207.031,298.828,37.109
1641437130.357,-20.508,38.086,-181.152,286.133,72.754
1641437130.361,20.996,35.156,-171.875,464.355,112.793
1641437130.364,28.320,35.156,-225.098,602.051,123.047
1641437130.368,-15.625,35.645,-225.098,519.043,77.148
1641437130.372,-23.438,35.156,-181.641,466.797,94.238
1641437130.376,22.949,35.156,-46.875,605.469,156.250
1641437130.380,43.457,35.156,-16.602,741.699,159.180
1641437130.384,-6.836,28.320,-20.508,660.645,135.742
1641437130.386,-37.109,24.414,-60.059,508.301,111.328
1641437130.390,1.465,27.344,-17.090,550.293,101.562
1641437130.394,36.621,28.809,-96.191,655.762,166.992
1641437130.398,16.602,34.180,-257.812,567.383,177.734
1641437130.402,-20.020,38.574,-110.840,359.375,124.512
1641437130.406,-2.930,35.645,-137.695,314.453,105.469
1641437130.409,45.410,32.715,-307.129,415.039,115.234
1641437130.413,51.270,32.715,-148.926,381.348,165.527
1641437130.417,9.277,25.879,20.508,157.715,145.508
1641437130.421,4.395,21.484,-178.223,34.180,137.695
1641437130.425,51.758,31.738,-131.836,124.023,176.758
1641437130.429,62.012,31.738,34.668,167.480,155.273
1641437130.433,11.230,28.320,-14.160,-12.695,166.992
1641437130.437,-0.488,29.785,-405.762,-154.785,102.539
1641437130.441,42.969,37.598,-451.660,-73.242,87.402
1641437130.445,71.289,38.086,-27.832,33.203,169.922
1641437130.449,34.668,31.738,-8.789,-59.082,174.316
1641437130.453,-2.930,19.043,-466.797,-206.543,153.809
1641437130.456,37.109,14.648,-622.559,-127.930,130.371
1641437130.460,74.219,31.738,-223.633,49.316,145.020
1641437130.464,35.645,35.645,-29.785,30.273,135.254
1641437130.468,-5.859,32.715,-462.891,-126.953,34.668
1641437130.472,14.648,34.668,-768.066,-125.488,11.230
1641437130.476,55.664,34.668,-325.195,48.828,85.938
1641437130.492,47.363,36.621,-55.664,104.492,109.863
1641437130.496,-2.930,33.203,-253.906,-59.082,57.129
1641437130.500,-5.371,30.273,-400.391,-119.629,20.996
1641437130.504,41.016,29.785,-296.387,34.668,68.848
1641437130.508,61.523,23.438,-154.785,134.277,113.770
1641437130.512,18.066,25.391,-464.844,-7.812,43.457
1641437130.515,-6.836,35.645,-669.922,-130.371,-5.859
1641437130.519,36.133,43.945,-231.934,-34.668,33.691
1641437130.523,69.824,41.992,-60.059,100.586,80.566
1641437130.527,34.668,38.086,-160.156,53.711,109.863
1641437130.531,-3.906,30.762,-234.375,-98.145,55.176
1641437130.535,21.484,28.320,-183.105,-63.965,6.836
1641437130.536,55.664,33.691,-110.840,102.051,16.113
1641437130.540,35.645,30.762,-35.156,105.957,7.324
1641437130.544,-10.254,20.508,-75.195,-72.266,-7.324
