timestamps,TP9,AF7,AF8,TP10,Right AUX
1642605461.625,18.066,25.391,-71.289,23.438,47.363
1642605461.629,4.883,23.926,-156.738,10.742,70.312
1642605461.633,9.277,24.414,-229.492,20.996,26.855
1642605461.637,20.020,27.344,-112.793,28.320,23.926
1642605461.641,18.555,30.273,22.461,28.809,27.344
1642605461.645,12.695,28.809,-152.344,26.855,-7.812
1642605461.649,13.672,24.902,-515.625,19.531,-24.414
1642605461.652,21.484,30.762,-336.426,26.855,-2.930
1642605461.656,22.949,39.551,76.172,36.621,32.227
1642605461.660,10.742,35.645,-73.242,28.809,21.484
1642605461.664,10.254,34.668,-215.332,24.902,3.906
1642605461.668,21.484,37.598,-81.543,28.809,10.742
1642605461.684,27.344,36.133,54.688,38.086,46.387
1642605461.688,22.461,34.180,-79.590,38.086,23.926
1642605461.692,14.648,34.668,-152.832,29.297,38.086
1642605461.696,25.879,37.109,-101.074,37.109,63.965
1642605461.700,38.574,36.621,-67.871,46.387,59.082
1642605461.704,25.879,37.109,-275.391,39.551,-11.230
1642605461.708,15.625,38.086,-612.793,28.320,-57.617
1642605461.711,20.996,38.574,-280.273,20.996,-2.930
1642605461.715,22.461,33.691,32.715,27.344,28.320
1642605461.719,20.508,30.273,-74.707,35.156,29.785
1642605461.723,9.277,37.109,-49.805,21.484,51.758
1642605461.727,8.789,39.062,16.113,13.672,52.246
1642605461.729,10.742,33.691,-49.805,15.137,61.523
1642605461.733,6.836,35.645,-163.574,14.160,33.203
1642605461.737,1.465,40.527,-126.953,11.230,25.391
1642605461.741,-7.812,37.598,-41.504,-0.977,38.574
1642605461.745,6.836,35.156,-141.602,-2.930,4.395
1642605461.749,17.090,35.156,-288.086,2.930,2.930
1642605461.753,1.465,29.297,-358.887,3.906,-3.418
1642605461.756,-3.418,31.250,-346.191,3.418,-12.207
1642605461.760,9.277,36.133,-312.988,1.465,-10.254
1642605461.764,14.648,31.738,-606.934,7.812,-9.277
1642605461.768,15.625,35.645,-574.707,15.137,0.000
1642605461.772,17.578,41.504,-243.652,7.812,-17.578
1642605461.775,17.090,40.039,-251.953,6.836,-19.531
1642605461.779,20.508,32.715,-247.559,20.508,7.324
1642605461.783,19.043,30.762,-105.957,27.344,73.730
1642605461.787,10.254,36.621,-29.785,15.625,110.352
1642605461.791,9.277,33.691,-186.523,8.301,62.012
1642605461.795,16.602,28.809,-281.250,19.531,55.176
1642605461.799,21.484,32.715,-291.992,23.926,46.875
1642605461.802,20.020,36.621,-199.219,21.973,3.418
1642605461.806,9.277,28.320,-333.008,5.859,-17.090
1642605461.810,13.184,27.832,-559.570,0.977,-52.246
1642605461.814,27.832,37.109,-167.480,18.555,-0.977
1642605461.818,22.461,33.203,9.766,18.555,28.809
1642605461.820,12.207,28.320,-190.430,4.395,-12.695
1642605461.824,18.555,33.691,-153.809,0.488,0.000
1642605461.828,25.391,38.574,-17.090,10.254,2.441
1642605461.832,19.531,34.180,-35.156,16.602,-1.953
1642605461.836,9.766,31.250,-107.910,4.883,-14.648
1642605461.840,12.695,34.668,-220.703,-0.977,8.789
1642605461.844,25.391,33.203,-223.633,9.766,2.930
1642605461.847,28.809,34.668,-100.586,20.508,-19.043
1642605461.851,21.484,31.250,-376.465,15.137,-35.645
1642605461.855,19.531,29.297,-354.492,9.277,-43.457
1642605461.859,36.621,38.086,-71.777,20.508,-14.648
1642605461.863,45.898,37.598,-175.781,30.762,6.836
1642605461.865,41.016,33.691,-250.977,29.785,6.836
1642605461.869,38.086,34.668,-106.445,24.902,9.277
1642605461.873,42.480,42.969,-9.277,22.949,33.203
1642605461.877,38.086,46.875,-127.930,17.090,-25.879
1642605461.881,27.344,44.434,-150.391,16.113,-28.809
1642605461.885,15.625,42.969,-151.367,16.602,-4.883
1642605461.889,17.090,43.945,-128.906,16.113,-56.641
1642605461.892,20.996,41.504,-286.133,26.367,-94.727
1642605461.896,11.719,33.691,-546.387,28.320,-108.398
1642605461.900,8.789,35.645,-190.430,17.090,-62.988
1642605461.904,12.695,36.621,-23.926,14.648,-51.758
1642605461.908,18.066,34.180,-108.398,20.996,-56.641
1642605461.910,19.531,32.715,-29.297,25.391,-2.441
1642605461.914,7.812,33.691,51.758,18.066,24.414
1642605461.918,1.953,38.574,-63.965,8.301,-33.203
1642605461.922,14.648,43.457,-167.969,12.207,-51.270
1642605461.926,16.113,44.922,-33.691,21.973,-35.156
1642605461.930,3.418,43.945,-71.777,14.160,-50.293
1642605461.934,-0.977,39.551,-186.523,4.883,-19.531
1642605461.937,3.906,35.156,-479.980,5.859,-5.859
1642605461.941,14.160,39.551,-462.891,15.625,-39.551
1642605461.945,15.137,47.363,-42.480,19.043,-34.180
1642605461.949,8.301,48.828,-86.914,4.883,-26.367
1642605461.953,11.719,43.945,-202.637,1.953,-51.270
1642605461.955,20.020,41.992,-56.152,16.113,-38.086
1642605461.959,12.207,41.992,65.918,27.344,13.184
1642605461.963,-1.953,36.133,-87.891,18.066,-21.973
1642605461.967,-1.465,33.691,-165.039,10.254,-63.477
1642605461.971,11.230,38.574,-118.164,18.066,-65.918
1642605461.975,13.184,37.598,-203.613,27.832,-66.406
1642605461.979,0.977,38.086,-429.199,26.855,-50.781
1642605461.982,-8.301,37.598,-644.531,11.230,-47.852
1642605461.986,2.441,34.180,-299.805,17.090,-43.457
1642605461.990,8.301,33.691,18.066,24.414,-12.207
1642605461.994,-3.906,34.668,-91.309,16.113,-43.457
1642605461.998,-2.930,34.668,-160.156,9.277,-28.320
1642605461.999,6.836,36.133,-83.984,7.324,-2.441
1642605462.003,6.836,34.668,-97.656,18.555,-37.598
1642605462.007,-0.488,30.762,-184.082,13.672,-51.270
1642605462.011,-4.395,31.250,-102.051,2.930,-14.648
1642605462.015,1.953,34.668,-28.320,5.859,41.504
1642605462.019,10.742,30.273,-193.359,15.625,61.035
1642605462.023,2.930,24.414,-510.254,17.090,21.484
1642605462.026,-7.324,26.855,-446.289,2.441,-32.227
1642605462.030,-4.395,28.809,-205.078,3.418,-30.273
1642605462.034,9.766,27.344,-293.457,17.090,-48.340
1642605462.038,16.602,31.738,-353.027,20.996,-48.828
1642605462.042,9.277,34.180,-145.508,17.090,-19.531
1642605462.045,5.859,35.156,-52.734,9.766,-5.371
1642605462.049,13.672,34.668,-204.590,9.277,2.930
1642605462.053,17.090,33.203,-232.422,20.020,-23.926
1642605462.057,6.836,32.715,-139.160,20.996,-10.742
1642605462.061,-0.488,34.180,-154.297,13.184,-0.488
1642605462.065,8.789,36.133,-373.535,14.648,-16.113
1642605462.069,21.973,34.180,-499.512,28.320,-60.059
1642605462.072,24.902,35.156,-200.195,32.715,-46.387
1642605462.076,17.578,37.109,-93.750,29.297,3.906
1642605462.080,19.043,35.156,-310.547,30.273,-33.691
1642605462.084,27.344,35.645,-270.508,31.738,-51.758
1642605462.088,23.438,35.156,-169.922,37.109,-31.250
1642605462.104,10.742,32.227,-179.199,30.762,-37.598
1642605462.108,6.348,30.762,-242.188,20.020,-68.359
1642605462.112,18.555,30.273,-239.258,20.996,-90.332
1642605462.116,22.949,34.668,-104.492,29.297,-59.570
1642605462.120,12.695,38.086,-67.383,25.391,-29.297
1642605462.124,4.395,30.762,-486.328,11.719,-95.703
1642605462.128,9.766,26.855,-590.332,9.277,-101.562
1642605462.131,18.066,31.250,-81.543,21.973,-28.320
1642605462.135,14.648,31.738,-138.184,20.508,-44.434
1642605462.139,0.488,31.250,-249.512,6.836,-57.129
1642605462.143,-0.488,34.668,-75.684,4.883,-2.930
1642605462.147,9.766,35.156,-15.137,12.695,12.695
1642605462.180,8.789,36.133,-28.809,17.090,9.277
1642605462.184,6.836,33.691,-176.270,12.207,-0.488
1642605462.188,7.812,29.297,-250.488,10.742,-39.062
1642605462.192,14.160,30.273,-53.711,15.625,-10.254
1642605462.196,19.531,33.203,-148.438,19.531,-16.113
1642605462.200,12.207,32.715,-360.352,15.625,-38.086
1642605462.204,9.766,34.180,-245.605,9.766,-12.207
1642605462.207,21.973,38.574,-79.590,18.555,8.301
1642605462.211,21.484,40.527,-292.480,27.344,1.953
1642605462.215,6.348,42.480,-339.355,19.531,28.809
1642605462.219,0.977,45.410,-85.449,9.766,40.039
1642605462.223,7.812,43.945,-146.484,13.184,39.062
1642605462.194,20.508,42.480,-313.477,26.855,25.391
1642605462.198,24.902,43.457,-291.992,30.273,-12.695
1642605462.202,13.672,44.922,-70.801,22.461,-10.254
1642605462.206,14.160,44.922,-85.938,20.020,-17.090
1642605462.210,24.902,41.504,-202.637,29.785,-25.879
1642605462.214,15.625,39.062,-305.664,31.250,-23.926
1642605462.218,0.488,38.574,-274.902,17.090,-18.066
1642605462.221,4.395,39.551,-179.688,17.090,42.480
1642605462.225,12.695,37.109,-159.180,21.484,43.945
1642605462.229,16.602,35.645,-87.891,19.531,24.414
1642605462.233,8.789,38.574,-29.785,21.973,16.113
1642605462.237,-0.488,34.668,-178.223,12.207,-1.953
1642605462.239,6.836,29.785,-292.969,8.789,4.395
1642605462.243,15.137,29.785,-105.469,12.695,11.719
1642605462.247,5.371,25.879,19.531,5.859,44.922
1642605462.251,-7.812,23.926,-197.266,-7.324,-6.836
1642605462.255,4.883,23.926,-626.953,-3.906,-78.613
1642605462.259,22.949,29.785,-520.508,11.230,-74.707
1642605462.263,22.461,36.133,-218.262,5.859,-41.016
1642605462.266,14.648,31.738,-393.555,-1.953,-34.668
1642605462.270,19.043,28.809,-610.352,5.859,-36.621
1642605462.274,23.438,33.691,-263.672,13.184,-1.953
1642605462.278,20.020,34.668,-7.812,21.484,16.113
1642605462.282,16.602,32.227,-89.844,11.230,-26.367
1642605462.284,16.113,31.250,-96.191,2.441,-36.621
1642605462.288,25.391,34.180,-3.906,14.648,-5.371
1642605462.292,28.809,32.715,-6.836,18.066,-18.066
1642605462.296,17.578,26.855,-118.652,13.672,-18.555
1642605462.300,15.137,28.809,-51.758,5.859,21.484
1642605462.304,24.414,32.227,-119.629,11.719,6.348
1642605462.308,24.902,27.832,-214.844,29.785,8.301
1642605462.311,20.508,24.902,-404.297,20.508,7.812
1642605462.315,9.766,29.785,-369.629,4.395,17.578
1642605462.319,3.906,25.391,-59.570,7.324,34.668
1642605462.323,23.926,12.207,-208.984,29.785,17.090
1642605462.327,23.926,21.973,-338.867,36.133,-21.973
1642605462.329,-2.930,37.109,-120.605,0.488,-14.160
1642605462.333,1.953,40.039,-86.914,-9.766,-19.531
1642605462.337,27.832,37.598,-117.188,16.113,-4.883
1642605462.341,28.809,39.062,2.930,25.879,56.152
1642605462.345,14.648,41.504,83.984,15.625,49.805
1642605462.349,11.230,35.645,-32.227,10.254,37.598
1642605462.353,18.555,28.320,-293.945,16.602,7.324
1642605462.356,22.461,27.344,-373.535,23.438,-15.625
1642605462.360,20.020,33.691,-88.379,27.832,3.418
1642605462.364,20.996,34.180,23.926,23.926,46.875
1642605462.368,29.785,33.203,-67.383,20.020,20.996
1642605462.372,36.133,35.156,20.996,25.391,24.902
1642605462.375,34.180,35.156,48.828,22.461,45.410
1642605462.379,29.297,33.691,-156.738,13.672,-10.254
1642605462.383,26.367,37.109,-286.621,8.789,-32.227
1642605462.387,26.367,37.109,-171.387,13.184,14.160
1642605462.391,24.414,38.086,19.043,22.949,39.062
1642605462.395,16.602,39.551,-103.516,16.113,-1.465
1642605462.399,9.766,34.180,-451.172,5.859,-2.441
1642605462.402,18.555,33.691,-266.113,20.508,56.641
1642605462.406,23.438,41.016,81.543,33.203,65.430
1642605462.410,12.207,45.898,-70.801,28.320,44.434
1642605462.414,13.672,41.504,-142.090,23.926,65.430
1642605462.418,27.344,35.645,-40.527,29.785,58.105
1642605462.434,28.809,33.691,-14.160,37.598,24.902
1642605462.438,18.066,32.227,-128.906,37.598,43.457
1642605462.442,13.184,33.203,-153.320,33.691,71.777
1642605462.446,12.207,33.691,-127.930,29.297,68.359
1642605462.450,12.695,31.250,-164.062,33.691,20.020
1642605462.454,8.789,30.273,-336.914,30.273,-20.020
1642605462.458,-4.395,28.809,-625.488,9.277,-34.180
1642605462.461,-6.348,32.715,-345.703,1.953,8.789
1642605462.465,-5.371,34.180,-68.848,6.348,66.406
1642605462.469,-12.695,27.344,-143.555,10.742,79.102
1642605462.473,-14.648,27.344,-166.504,8.789,61.523
1642605462.477,-10.742,30.762,-97.656,2.930,29.297
1642605462.479,-0.488,27.832,-85.938,6.348,30.762
1642605462.483,2.441,24.902,-142.090,13.184,41.992
1642605462.487,-7.324,27.344,-155.762,8.789,44.922
1642605462.491,-6.348,31.250,-145.996,3.418,39.062
1642605462.495,2.930,29.297,-185.059,14.648,13.672
1642605462.499,4.395,30.273,-264.160,24.414,7.812
1642605462.503,0.000,30.762,-323.242,19.043,19.043
1642605462.506,3.906,26.855,-352.051,12.695,4.883
1642605462.510,19.043,24.902,-335.938,16.113,-26.855
1642605462.514,26.367,27.344,-574.707,25.879,-31.250
1642605462.518,26.367,32.715,-507.812,22.461,-27.832
1642605462.522,27.344,34.668,-169.922,15.137,-35.645
1642605462.525,32.715,32.227,-219.238,24.414,-28.320
1642605462.529,44.434,31.250,-183.105,29.297,-7.812
1642605462.533,51.270,30.762,-86.914,34.180,-15.625
1642605462.537,45.898,26.855,-58.594,26.367,15.137
1642605462.541,41.016,28.320,-177.734,15.137,61.035
1642605462.545,41.992,30.762,-312.988,27.344,14.648
1642605462.549,34.668,31.250,-286.621,31.250,-50.293
1642605462.552,26.855,32.227,-191.895,23.926,-15.625
1642605462.556,32.227,33.203,-379.395,11.719,-21.973
1642605462.560,36.621,33.691,-541.504,8.789,-65.430
1642605462.564,34.180,33.691,-125.488,20.020,-12.695
1642605462.568,22.949,31.738,-31.738,16.602,-23.438
1642605462.569,14.648,29.785,-270.508,3.418,-67.871
1642605462.573,20.020,26.855,-245.117,-3.906,-29.785
1642605462.577,23.438,31.250,-86.914,2.930,-18.066
1642605462.581,19.043,29.785,-91.309,11.230,-35.156
1642605462.585,14.160,23.438,-106.445,1.465,-25.391
1642605462.589,13.672,21.973,-221.191,-4.883,-59.570
1642605462.593,21.973,23.438,-231.445,4.395,-26.367
1642605462.596,24.902,27.832,-125.977,13.672,27.832
1642605462.600,3.418,21.973,-250.000,3.418,-36.133
1642605462.604,-11.230,18.066,-171.387,-11.719,-73.730
1642605462.608,1.953,21.484,12.207,-1.465,-8.301
1642605462.612,10.254,24.902,-141.602,15.625,7.812
1642605462.614,7.812,27.832,-254.395,19.043,6.836
1642605462.618,10.254,25.879,-77.148,15.625,53.223
1642605462.622,18.555,26.367,70.312,25.879,102.051
1642605462.626,23.926,23.926,-155.762,35.156,68.848
1642605462.630,19.531,24.902,-374.512,18.555,2.930
1642605462.634,16.602,25.879,-229.004,11.230,3.418
1642605462.638,22.461,27.832,-220.703,18.555,-1.953
1642605462.641,26.367,33.691,-428.223,25.391,-40.527
1642605462.645,25.391,30.273,-429.688,29.785,-30.762
1642605462.649,16.602,27.344,-106.445,19.043,17.090
1642605462.653,13.672,27.344,-37.109,12.695,23.926
1642605462.657,28.320,26.855,-95.703,22.461,31.738
1642605462.659,27.344,29.785,-106.445,25.879,-14.648
1642605462.663,16.113,30.273,-48.340,13.184,-53.711
1642605462.667,6.836,21.484,-110.352,7.324,-25.391
1642605462.671,13.184,23.438,-238.770,16.113,-10.742
1642605462.675,25.879,30.273,-161.133,25.391,-20.020
1642605462.679,16.113,25.879,-183.105,19.043,-40.527
1642605462.683,2.930,23.438,-282.227,7.812,-41.504
1642605462.686,9.277,22.461,-490.234,8.301,-51.758
1642605462.690,24.902,25.391,-350.586,20.020,-13.672
1642605462.694,16.602,28.320,7.812,22.461,22.949
1642605462.698,0.977,23.438,-97.656,16.113,-1.465
1642605462.702,11.719,25.391,-179.688,16.602,-25.391
1642605462.704,29.785,30.762,-47.852,24.414,-30.762
1642605462.708,22.461,27.832,-77.637,27.832,-1.953
1642605462.712,7.812,24.414,-215.332,20.508,22.461
1642605462.716,14.648,25.391,-167.480,19.531,35.645
1642605462.720,24.902,27.832,-61.523,32.227,42.480
1642605462.724,27.832,29.785,-211.426,36.621,-2.930
1642605462.728,22.949,30.762,-453.613,28.320,-31.738
1642605462.731,23.438,34.668,-625.000,20.020,-52.734
1642605462.735,29.785,36.133,-324.707,21.484,-25.391
1642605462.739,26.855,33.691,-46.875,31.250,34.668
1642605462.743,15.625,32.227,-139.160,30.273,28.320
1642605462.747,11.230,30.762,-185.059,19.531,-25.391
1642605462.749,16.602,30.273,-117.676,19.531,-43.945
1642605462.753,24.414,32.227,-68.848,35.156,-13.184
1642605462.757,17.578,35.645,-140.137,34.668,9.766
1642605462.761,2.441,34.180,-145.020,16.602,15.137
1642605462.765,7.812,36.133,-106.445,18.066,30.762
1642605462.769,18.555,36.133,-282.227,31.738,-3.418
1642605462.773,19.043,29.297,-613.770,36.133,-45.898
1642605462.776,14.648,30.762,-434.570,21.484,13.184
1642605462.780,13.672,35.645,-199.707,13.672,41.504
1642605462.784,19.531,31.738,-406.250,26.855,24.902
1642605462.788,23.438,30.273,-396.484,31.250,13.672
1642605462.792,17.578,33.203,-187.500,26.367,4.883
1642605462.809,12.695,30.273,-98.633,22.949,6.348
1642605462.813,15.625,29.297,-255.371,29.785,7.324
1642605462.817,20.020,31.738,-347.168,38.086,42.480
1642605462.821,12.695,32.715,-190.430,30.762,20.508
1642605462.825,0.488,34.668,-78.125,20.508,41.504
1642605462.829,7.324,32.227,-344.238,14.160,55.664
1642605462.833,13.672,29.297,-566.406,16.113,-21.484
1642605462.836,12.207,31.250,-252.441,25.879,31.250
1642605462.840,10.254,35.156,-67.871,20.020,62.988
1642605462.844,9.277,35.156,-253.906,9.766,-5.859
1642605462.848,19.043,34.180,-278.320,13.672,17.090
1642605462.852,14.160,38.086,-160.156,14.648,25.879
1642605462.855,0.977,37.598,-144.043,7.812,-3.418
1642605462.859,7.324,34.668,-234.863,7.324,-13.672
1642605462.863,16.602,33.203,-239.746,17.090,9.766
1642605462.867,20.996,31.738,-59.570,22.461,26.367
1642605462.871,18.555,33.691,-62.988,22.461,35.156
1642605462.875,8.301,31.738,-232.422,16.113,0.977
1642605462.879,18.066,23.926,-322.266,22.949,-37.598
1642605462.882,47.363,24.902,-221.680,57.617,-20.996
1642605462.886,32.715,41.992,-168.945,42.969,-7.812
1642605462.890,-10.742,49.805,-508.789,-7.324,-29.785
1642605462.894,-18.555,44.922,-444.824,-12.695,-36.133
1642605462.898,-14.648,48.828,-145.508,-11.719,4.883
1642605462.900,-28.320,53.223,-240.234,-25.391,48.340
1642605462.904,-46.875,56.152,-370.117,-48.828,36.133
1642605462.908,-51.758,60.547,-421.387,-67.871,24.414
1642605462.912,-37.109,63.477,-354.980,-58.594,37.109
1642605462.916,-40.527,66.895,-379.883,-54.199,46.875
1642605462.920,-60.547,62.988,-549.805,-73.242,60.059
1642605462.924,-63.965,53.711,-653.320,-82.520,19.531
1642605462.927,-46.875,48.340,-530.762,-62.500,10.254
1642605462.931,-36.621,44.434,-589.844,-42.969,31.250
1642605462.935,-47.363,41.504,-898.438,-50.293,9.766
1642605462.939,-45.898,43.945,-669.922,-55.664,2.441
1642605462.943,-31.738,43.945,-451.660,-40.039,14.648
1642605462.944,-24.414,37.109,-503.906,-29.785,4.395
1642605462.948,-24.414,32.715,-505.371,-33.203,26.855
1642605462.952,-28.320,33.203,-465.332,-37.109,71.289
1642605462.956,-25.391,33.691,-478.027,-32.227,99.121
1642605462.960,-10.254,33.691,-595.703,-19.531,87.402
1642605462.964,-3.418,29.297,-673.828,-6.836,70.312
1642605462.968,-15.137,26.367,-675.781,-7.324,72.266
1642605462.971,-11.230,27.344,-637.207,-8.301,62.500
1642605462.975,-2.930,24.414,-852.051,3.418,44.434
1642605462.979,3.418,22.461,-846.680,12.207,20.508
1642605462.983,4.395,24.414,-467.285,9.766,25.391
1642605462.987,3.418,26.367,-503.906,7.324,40.039
1642605462.989,19.531,29.785,-492.188,19.043,28.809
1642605462.993,30.273,30.762,-283.691,25.879,51.758
1642605462.997,24.902,31.250,-261.719,25.391,60.547
1642605463.001,19.531,31.250,-460.938,19.043,19.043
1642605463.005,31.250,27.832,-470.215,20.508,43.457
1642605463.009,47.363,24.902,-446.289,34.180,52.246
1642605463.013,30.762,28.320,-421.875,31.250,40.527
1642605463.016,17.090,29.785,-540.039,19.043,20.020
1642605463.020,26.855,28.320,-863.770,16.113,15.137
1642605463.024,37.598,33.203,-522.461,28.320,52.734
1642605463.028,41.504,32.715,-246.094,41.016,47.363
1642605463.032,29.785,28.809,-348.145,24.902,50.293
1642605463.034,28.809,30.273,-309.082,9.766,57.617
1642605463.038,41.992,32.227,-225.098,23.926,56.152
1642605463.042,39.551,30.762,-197.754,33.203,121.582
1642605463.046,27.344,27.832,-281.738,21.484,95.703
1642605463.050,27.344,26.367,-312.500,12.207,34.668
1642605463.054,32.715,23.438,-377.441,17.090,11.230
1642605463.058,33.691,23.438,-463.379,32.715,-34.180
1642605463.061,16.113,23.926,-633.789,26.367,-42.969
1642605463.065,7.324,23.438,-552.246,11.719,-16.113
1642605463.069,15.137,29.297,-246.582,16.113,24.414
1642605463.073,23.926,23.926,-294.922,27.344,11.230
1642605463.077,18.555,20.020,-374.023,34.668,16.602
1642605463.079,13.672,26.367,-217.285,28.320,16.602
1642605463.083,18.066,28.320,-162.109,20.996,5.371
1642605463.087,20.996,26.855,-284.668,25.879,67.383
1642605463.091,24.902,27.832,-325.195,30.762,56.152
1642605463.095,22.461,30.273,-225.586,24.414,0.000
1642605463.099,26.855,28.320,-317.871,20.020,-16.602
1642605463.103,41.016,26.855,-570.801,27.344,-27.344
1642605463.106,41.016,27.344,-599.121,29.297,12.695
1642605463.110,44.922,33.203,-219.727,30.273,83.984
1642605463.114,46.387,36.621,-96.680,26.855,85.449
1642605463.118,35.645,34.668,-235.352,9.277,78.125
1642605463.122,33.691,34.180,-216.309,14.160,75.684
1642605463.125,32.715,38.574,-152.832,16.602,57.129
1642605463.129,20.020,39.062,-318.359,5.859,59.082
1642605463.133,22.461,38.574,-456.543,11.230,26.367
1642605463.137,26.855,38.086,-321.289,18.555,8.789
1642605463.141,14.648,39.062,-185.547,21.973,43.945
1642605463.145,1.953,37.598,-270.996,12.207,62.012
1642605463.149,1.465,33.691,-576.172,10.742,60.547
1642605463.152,12.695,35.156,-478.516,22.461,91.797
1642605463.156,12.207,34.180,-111.328,28.320,157.715
1642605463.160,0.488,30.762,-169.922,24.414,132.812
1642605463.164,3.906,32.715,-261.719,17.090,87.402
1642605463.168,19.043,34.668,-125.977,24.902,114.258
1642605463.184,27.832,38.086,-120.117,41.992,85.938
1642605463.188,16.113,39.551,-261.719,35.156,73.730
1642605463.192,9.766,36.621,-251.953,22.461,96.680
1642605463.196,24.902,40.527,-219.238,27.832,87.891
1642605463.200,32.227,44.434,-240.723,34.668,65.430
1642605463.204,24.414,41.992,-407.227,31.738,48.828
1642605463.208,18.066,39.062,-739.746,20.508,27.832
1642605463.211,29.785,42.480,-496.094,22.461,-8.301
1642605463.215,38.086,43.945,-170.410,34.180,13.672
1642605463.219,36.621,41.504,-182.129,40.039,71.289
1642605463.223,29.297,37.598,-208.984,31.250,69.336
1642605463.227,24.414,34.668,-129.883,21.973,77.637
1642605463.229,36.133,34.180,-116.699,32.227,92.773
1642605463.233,29.785,33.203,-167.969,32.715,86.426
1642605463.237,14.648,35.156,-166.504,18.555,103.516
1642605463.241,10.254,38.086,-144.531,9.766,93.262
1642605463.245,16.602,31.250,-165.527,13.672,89.355
1642605463.249,16.602,30.762,-249.512,22.949,73.730
1642605463.253,4.883,33.203,-305.176,14.648,25.879
1642605463.256,2.441,29.785,-388.672,1.953,-17.090
1642605463.260,13.184,28.320,-402.344,7.324,13.184
1642605463.264,19.043,28.320,-594.238,17.090,24.902
1642605463.268,10.254,31.250,-553.711,14.160,-14.648
1642605463.272,5.371,29.785,-201.172,5.371,6.348
1642605463.275,5.371,22.949,-228.027,11.230,43.457
1642605463.279,10.742,19.531,-275.391,22.949,41.016
1642605463.283,17.090,21.973,-201.172,31.738,30.762
1642605463.287,5.859,20.020,-172.852,28.809,36.621
1642605463.291,2.930,17.578,-231.934,19.531,70.312
1642605463.295,19.043,20.020,-364.746,24.414,31.738
1642605463.299,16.602,24.902,-341.797,25.879,25.391
1642605463.302,7.812,31.738,-145.996,13.672,79.590
1642605463.306,7.812,30.273,-284.180,-1.953,1.953
1642605463.310,19.043,21.973,-433.594,0.977,-27.344
1642605463.314,30.762,24.902,-162.598,19.043,15.137
1642605463.318,21.973,32.715,21.973,15.137,47.363
1642605463.320,12.695,30.762,-327.148,2.930,34.180
1642605463.324,24.902,31.250,-511.230,2.930,44.922
1642605463.328,36.621,36.621,-143.555,9.277,78.125
1642605463.332,27.344,35.156,-63.965,12.695,77.148
1642605463.336,19.531,31.250,-127.441,2.441,57.617
1642605463.340,22.949,33.203,-187.500,4.883,16.602
1642605463.344,28.809,34.180,-173.828,18.555,48.340
1642605463.347,26.855,34.668,-86.914,19.531,71.289
1642605463.351,16.602,32.715,-442.871,10.254,30.762
1642605463.355,20.996,31.738,-435.547,4.883,16.113
1642605463.359,30.273,34.180,-7.324,20.996,34.180
1642605463.363,30.762,32.715,-76.172,27.344,32.715
1642605463.365,24.902,33.691,-265.137,20.020,-6.348
1642605463.369,17.578,39.551,-219.238,20.020,10.742
1642605463.373,23.926,39.551,-131.348,23.438,13.672
1642605463.377,26.367,31.250,-271.973,30.273,41.504
1642605463.381,16.602,30.273,-286.621,26.855,101.562
1642605463.385,7.324,30.273,-253.906,10.254,51.758
1642605463.389,12.695,30.273,-308.594,10.742,16.113
1642605463.392,24.902,33.691,-383.789,23.926,31.738
1642605463.396,20.508,33.203,-488.281,25.391,-3.906
1642605463.400,17.578,38.086,-203.613,12.695,30.273
1642605463.404,21.973,41.504,-33.691,6.836,41.992
1642605463.408,30.762,40.039,-71.289,22.461,41.992
1642605463.409,28.320,38.574,-54.199,26.367,104.980
1642605463.413,9.766,35.156,44.922,9.766,127.441
1642605463.417,4.395,30.762,-8.301,0.488,129.883
1642605463.421,16.113,28.320,-174.805,8.789,94.238
1642605463.425,22.461,27.832,-128.418,21.973,60.059
1642605463.429,14.648,28.809,-167.480,16.113,56.152
1642605463.433,10.742,30.762,-227.539,8.789,45.898
1642605463.436,19.043,27.832,-426.270,9.766,19.043
1642605463.440,31.250,28.809,-472.168,16.113,-25.391
1642605463.444,30.762,34.668,-69.824,23.438,-1.465
1642605463.448,20.020,32.715,-119.141,12.207,20.020
1642605463.452,20.508,28.809,-196.777,8.789,11.230
1642605463.455,27.344,28.320,-83.984,15.137,15.137
1642605463.459,21.484,31.250,-63.965,18.555,35.156
1642605463.463,11.230,30.762,-131.836,13.672,62.012
1642605463.467,13.672,31.250,-158.691,12.207,43.457
1642605463.471,22.949,31.738,-63.965,22.461,44.434
1642605463.475,20.508,30.762,-102.051,24.902,56.641
1642605463.479,7.324,26.367,-401.367,23.438,49.316
1642605463.482,6.348,24.902,-667.480,19.531,53.223
1642605463.486,18.066,30.273,-325.195,26.367,38.086
1642605463.490,21.484,31.738,9.766,36.621,16.113
1642605463.494,23.438,32.227,-99.609,40.527,-16.113
1642605463.498,30.762,34.668,-183.594,41.992,-44.922
1642605463.500,6.348,29.297,-65.430,20.508,-5.371
1642605463.504,-12.207,29.297,-66.406,9.277,8.789
1642605463.508,-10.742,26.855,-202.637,17.090,-0.977
1642605463.512,-26.855,20.020,-207.520,-1.953,32.227
1642605463.516,-25.879,22.949,-129.883,-7.324,80.566
1642605463.520,-17.578,22.949,-259.277,7.812,45.410
1642605463.524,-26.367,17.578,-598.633,2.930,8.789
1642605463.527,-30.273,21.973,-484.375,-13.672,18.555
1642605463.531,-21.484,22.461,-209.473,-17.090,24.902
1642605463.535,-11.719,17.090,-396.484,-4.883,45.410
1642605463.539,-10.742,22.949,-445.312,4.883,57.129
1642605463.543,-12.695,23.926,-220.703,3.906,62.012
1642605463.559,-9.766,24.414,-125.488,1.953,87.891
1642605463.563,-0.488,26.367,-252.930,7.812,71.777
1642605463.567,4.883,20.996,-270.508,19.531,36.133
1642605463.571,-0.488,21.484,-169.434,18.555,14.160
1642605463.575,-4.883,25.879,-132.812,11.230,11.719
1642605463.579,2.441,26.367,-399.414,20.508,-26.367
1642605463.583,18.555,26.367,-473.633,38.574,-7.812
1642605463.586,15.625,25.879,-158.691,39.062,58.105
1642605463.590,12.207,23.438,-132.812,25.879,41.504
1642605463.594,24.414,24.414,-332.520,24.414,4.883
1642605463.598,34.180,28.320,-367.188,32.227,-24.902
1642605463.602,29.785,28.809,-219.238,33.691,-12.207
1642605463.604,18.555,27.832,-260.254,27.832,10.742
1642605463.608,11.719,27.832,-356.934,16.113,46.875
1642605463.612,20.508,30.273,-298.340,20.996,42.480
1642605463.616,23.926,28.809,-138.184,27.832,20.508
1642605463.620,7.324,26.855,-133.789,15.137,63.477
1642605463.624,-3.418,23.438,-288.574,4.883,67.383
1642605463.628,2.441,20.508,-362.793,9.277,82.031
1642605463.631,8.789,23.926,-229.492,19.531,87.891
1642605463.635,2.930,24.414,-214.355,11.230,51.270
1642605463.639,-0.488,20.020,-544.434,-5.859,41.992
1642605463.643,12.695,26.367,-492.188,1.465,9.277
1642605463.647,27.344,38.574,-151.367,20.996,51.270
1642605463.650,21.973,37.109,-169.922,24.414,90.332
1642605463.654,13.184,38.086,-257.324,10.254,30.273
1642605463.658,17.578,38.574,-242.676,9.277,32.715
1642605463.662,25.879,36.133,-117.188,27.344,61.523
1642605463.666,25.391,34.180,-159.180,36.133,96.680
1642605463.670,11.719,33.691,-371.094,20.996,57.129
1642605463.674,10.254,35.156,-326.172,10.254,-12.695
1642605463.677,27.344,36.621,-166.016,28.320,-5.371
1642605463.681,31.250,37.109,-261.719,41.992,5.859
1642605463.685,18.066,36.621,-496.582,27.832,-42.969
1642605463.689,15.137,39.062,-181.152,18.066,2.930
1642605463.693,23.926,39.551,-97.656,18.555,49.316
1642605463.694,35.156,38.574,-184.570,29.297,44.922
1642605463.698,45.898,41.992,-96.191,43.457,51.270
1642605463.702,30.273,41.016,-43.945,27.344,60.547
1642605463.706,10.254,34.668,-90.332,7.324,64.453
1642605463.710,22.949,34.180,-136.230,22.461,51.758
1642605463.714,25.391,32.715,-175.781,34.180,27.344
1642605463.718,12.695,30.762,-269.043,22.461,30.762
1642605463.721,16.602,32.227,-287.109,24.414,48.340
1642605463.725,20.020,29.297,-513.672,30.273,20.996
1642605463.729,16.113,24.902,-431.641,25.391,30.273
1642605463.733,8.301,26.855,-57.617,17.090,41.016
1642605463.737,4.883,29.297,-150.391,9.766,43.945
1642605463.740,17.090,30.762,-174.316,21.484,65.918
1642605463.744,23.926,32.715,-17.578,35.156,75.684
1642605463.748,14.160,33.691,2.441,27.832,64.453
1642605463.752,5.859,38.574,-139.648,20.020,42.480
1642605463.756,16.113,37.109,-175.781,23.926,4.883
1642605463.760,28.809,30.273,-218.262,36.621,-24.902
1642605463.764,24.414,31.738,-237.793,37.598,27.344
1642605463.767,17.090,29.785,-303.223,22.949,39.062
1642605463.771,19.531,23.926,-596.191,23.438,-17.578
1642605463.775,27.344,30.273,-288.574,37.109,40.039
1642605463.779,26.367,30.762,-20.996,36.621,62.500
1642605463.783,17.578,25.879,-154.785,26.367,17.578
1642605463.784,17.090,24.414,-136.719,19.043,75.195
1642605463.788,25.391,24.902,-70.801,24.414,71.777
1642605463.792,27.832,25.879,-111.328,35.156,20.508
1642605463.796,12.695,23.438,-178.223,26.855,0.000
1642605463.800,1.953,27.344,-125.977,11.230,17.090
1642605463.804,12.207,31.250,-245.117,12.207,9.766
1642605463.808,22.461,31.250,-339.844,30.762,-12.695
1642605463.811,14.648,24.902,-475.098,30.762,2.930
1642605463.815,5.371,23.438,-426.758,12.695,27.832
1642605463.819,14.160,27.344,-82.031,10.742,87.402
1642605463.823,16.113,26.367,-146.484,16.113,74.219
1642605463.827,18.555,30.762,-255.859,20.020,45.898
1642605463.829,21.484,36.133,-98.145,14.160,57.617
1642605463.833,17.578,33.203,-7.324,9.277,63.965
1642605463.837,28.320,28.320,-197.266,21.484,67.383
1642605463.841,31.250,30.762,-260.742,26.367,64.941
1642605463.845,20.020,36.621,-84.961,23.438,67.383
1642605463.849,11.719,36.133,-112.793,21.973,78.125
1642605463.853,20.508,31.250,-353.027,26.367,28.320
1642605463.856,24.414,30.762,-424.805,27.832,-18.555
1642605463.860,16.113,32.715,-102.539,24.414,27.344
1642605463.864,9.766,32.715,-25.879,23.926,43.457
1642605463.868,20.020,30.273,-167.480,26.855,15.137
1642605463.872,31.738,31.250,-164.062,42.480,5.859
1642605463.875,21.973,35.645,-6.348,35.156,31.250
1642605463.879,9.277,30.273,-92.773,19.531,61.035
1642605463.883,13.184,25.391,-288.574,24.902,54.688
1642605463.887,20.996,31.250,-167.969,32.715,44.922
1642605463.891,17.578,33.203,-7.812,35.156,61.035
1642605463.895,9.277,28.320,-207.031,17.578,47.363
1642605463.899,9.766,26.367,-576.172,8.789,0.488
1642605463.902,19.531,33.203,-454.590,20.508,21.973
1642605463.906,18.555,35.156,2.441,24.902,65.918
1642605463.910,4.395,31.250,-98.145,15.625,35.645
1642605463.914,7.324,27.832,-247.070,4.395,17.090
1642605463.918,16.113,33.691,-65.918,11.719,52.734
1642605463.935,17.090,34.180,2.441,25.391,53.223
1642605463.939,11.230,28.320,-152.344,18.066,39.551
1642605463.943,2.930,29.785,-218.262,9.766,41.016
1642605463.947,8.301,28.320,-98.145,10.742,28.809
1642605463.951,13.184,25.879,-151.855,20.020,14.160
1642605463.955,2.441,25.391,-354.492,20.508,38.086
1642605463.959,-11.230,23.926,-649.902,4.395,27.832
1642605463.962,-6.836,25.391,-365.723,7.812,60.547
1642605463.966,5.371,27.832,23.438,21.484,69.824
1642605463.970,4.395,25.391,-83.496,25.391,36.133
1642605463.974,-3.906,23.438,-121.582,17.090,47.852
1642605463.978,1.953,25.879,-113.281,8.301,1.953
1642605463.979,15.137,28.320,-133.789,21.973,9.277
1642605463.983,20.020,25.391,-168.945,29.785,66.895
1642605463.987,16.602,27.832,-165.039,20.508,71.289
1642605463.991,13.672,30.273,-108.887,15.625,41.992
1642605463.995,20.508,28.809,-175.781,19.531,40.039
1642605463.999,26.367,29.785,-343.750,27.832,31.738
1642605464.003,19.531,27.344,-416.504,20.020,75.684
1642605464.006,9.277,26.855,-403.809,2.930,57.617
1642605464.010,16.113,31.738,-303.223,6.836,-30.273
1642605464.014,23.926,30.273,-508.301,20.508,-19.043
1642605464.018,25.879,29.297,-543.945,14.160,-15.625
1642605464.022,21.973,32.227,-182.617,5.371,17.090
1642605464.025,23.926,29.785,-159.668,13.184,51.270
1642605464.029,32.715,29.785,-152.832,23.926,40.527
1642605464.033,25.391,34.668,-41.016,26.367,45.898
1642605464.037,17.578,34.180,-79.102,21.973,34.668
1642605464.041,13.672,31.738,-204.102,14.160,15.137
1642605464.045,19.043,32.227,-261.719,21.973,51.270
1642605464.049,15.137,34.180,-227.539,28.320,68.848
1642605464.052,3.418,31.738,-86.914,15.137,38.086
1642605464.056,6.348,27.832,-186.523,8.789,54.688
1642605464.060,13.672,27.344,-503.418,10.742,9.766
1642605464.064,20.508,22.949,-268.066,18.555,25.391
1642605464.068,24.414,25.879,-9.277,27.832,62.500
1642605464.070,18.555,35.156,-151.855,8.789,33.691
1642605464.074,13.672,38.086,-161.133,-7.812,26.367
1642605464.078,25.879,35.156,-21.973,11.230,-11.719
1642605464.082,30.273,32.715,-54.688,22.461,-2.930
1642605464.086,21.973,32.227,-132.324,14.160,8.301
1642605464.090,30.762,36.133,-217.285,16.602,10.742
1642605464.094,37.598,38.086,-242.676,23.926,33.691
1642605464.097,31.250,31.250,-160.156,31.250,18.066
1642605464.101,25.391,28.320,-372.559,25.391,44.922
1642605464.105,24.902,30.762,-384.766,14.160,52.734
1642605464.109,33.203,36.133,-195.312,25.879,-19.043
1642605464.113,32.715,37.598,-209.473,32.715,-3.906
1642605464.115,20.020,35.645,-248.535,21.484,13.672
1642605464.119,16.113,36.621,-143.066,13.672,7.812
1642605464.123,23.926,36.621,-43.945,19.531,23.438
1642605464.127,27.344,33.203,-105.957,28.809,36.621
1642605464.131,19.531,34.668,-182.129,27.832,15.137
1642605464.135,10.742,36.133,-259.277,16.113,20.996
1642605464.139,14.160,32.715,-220.703,15.625,29.297
1642605464.142,19.043,31.738,-251.465,21.973,17.578
1642605464.146,3.418,29.297,-437.988,13.184,-27.344
1642605464.150,-5.859,32.227,-136.230,-2.441,4.883
1642605464.154,0.488,36.133,-19.531,-4.395,39.062
1642605464.158,17.090,36.133,-116.211,14.160,35.645
1642605464.159,20.996,35.645,-53.223,20.508,82.031
1642605464.163,11.230,34.668,-24.414,13.184,55.664
1642605464.167,15.137,36.621,-65.918,8.301,39.551
1642605464.171,25.879,38.574,-167.969,16.113,72.266
1642605464.175,28.809,38.086,-171.387,30.762,41.016
1642605464.179,18.555,34.180,-204.590,25.879,11.719
1642605464.183,16.113,36.133,-268.066,21.973,58.105
1642605464.186,24.902,40.039,-501.465,21.973,42.480
1642605464.190,32.227,38.574,-503.418,24.414,-23.926
1642605464.194,25.391,40.039,-36.621,27.344,24.414
1642605464.198,16.113,36.621,-92.285,18.555,30.273
1642605464.202,17.578,34.668,-199.707,17.578,12.207
1642605464.204,26.855,34.180,-82.031,26.855,10.254
1642605464.208,24.414,37.109,-68.848,28.320,17.090
1642605464.212,10.742,39.062,-149.414,18.066,22.949
1642605464.216,12.695,37.598,-230.957,17.578,6.836
1642605464.220,22.949,37.598,-143.555,33.691,-2.930
1642605464.224,16.113,35.645,-128.906,39.062,38.086
1642605464.228,-5.859,30.762,-355.469,29.785,42.480
1642605464.231,-15.137,30.273,-590.820,20.996,9.277
1642605464.235,-3.418,33.691,-282.715,26.367,31.250
1642605464.239,1.465,28.809,-64.941,33.691,12.207
1642605464.243,-2.441,26.855,-147.949,24.414,12.695
1642605464.247,-4.883,31.738,-115.234,15.625,23.926
1642605464.249,10.254,35.156,21.973,26.367,40.039
1642605464.253,20.020,31.738,36.621,33.203,70.312
1642605464.257,10.254,26.855,-84.961,23.438,67.383
1642605464.261,6.348,29.297,-71.289,12.207,79.590
1642605464.265,13.672,33.203,-19.531,16.113,49.316
1642605464.269,25.879,28.320,-111.816,33.691,51.758
1642605464.273,22.949,28.320,-397.949,35.645,91.797
1642605464.276,13.672,31.250,-295.410,20.020,112.793
1642605464.280,22.949,33.691,2.930,17.090,134.766
1642605464.284,31.250,35.156,-61.035,28.809,121.094
1642605464.288,28.809,32.227,-90.332,36.133,60.059
1642605464.292,15.625,29.785,22.461,24.902,56.152
1642605464.295,3.906,24.902,112.793,14.160,72.754
1642605464.299,12.695,27.832,-6.836,24.902,42.480
1642605464.303,22.949,35.645,13.672,36.621,41.016
1642605464.307,17.090,39.062,85.938,30.273,18.066
1642605464.311,12.207,35.645,82.031,21.973,36.133
1642605464.315,18.555,31.250,-225.586,22.949,46.387
1642605464.319,23.438,33.203,-353.516,31.250,44.922
1642605464.322,11.230,34.668,-51.270,29.297,44.434
1642605464.326,-7.324,32.715,50.293,15.625,48.340
1642605464.330,-3.906,29.785,-133.301,10.742,57.617
1642605464.334,8.789,31.738,-123.535,18.555,55.664
1642605464.338,7.324,33.203,-2.441,20.996,51.270
1642605464.354,0.977,29.297,-118.652,15.625,48.340
1642605464.358,9.766,29.785,-167.480,14.648,66.406
1642605464.362,17.090,30.273,-103.516,21.973,69.336
1642605464.366,19.531,32.715,37.109,24.902,88.379
1642605464.370,18.066,36.621,5.859,22.949,106.445
1642605464.374,12.207,34.180,-273.438,18.066,34.668
1642605464.378,20.508,35.156,-341.797,23.438,26.855
1642605464.381,31.250,37.109,-39.062,37.109,67.383
1642605464.385,26.367,34.668,-49.805,31.250,13.184
1642605464.389,18.066,31.738,-359.375,24.902,13.672
1642605464.393,28.320,37.109,-239.746,32.715,68.848
1642605464.397,34.668,37.109,-13.672,40.527,56.641
1642605464.400,14.160,28.809,-92.285,32.715,60.059
1642605464.404,2.441,25.391,-145.996,21.484,68.359
1642605464.408,11.230,28.320,-169.434,18.555,62.988
1642605464.412,18.066,33.203,-72.266,27.832,84.961
1642605464.416,13.184,28.809,-139.160,32.715,53.223
1642605464.420,6.348,26.855,-348.145,27.344,18.555
1642605464.424,14.160,33.203,-247.559,22.461,47.363
1642605464.427,21.484,37.109,-52.246,27.344,41.992
1642605464.431,19.043,31.738,-213.379,32.715,19.043
1642605464.435,12.695,27.832,-413.086,24.902,30.273
1642605464.439,8.301,28.320,-108.398,18.066,18.066
1642605464.443,16.602,26.367,-24.902,15.137,-7.324
1642605464.444,17.578,25.879,-121.094,19.043,-14.160
1642605464.448,11.230,27.832,-115.723,24.414,-10.254
1642605464.452,16.113,28.320,-45.410,19.531,-1.953
1642605464.456,25.391,25.391,-59.570,20.508,19.043
1642605464.460,34.180,29.785,-145.020,23.926,41.016
1642605464.464,33.203,35.156,-192.871,24.902,66.406
1642605464.468,19.043,32.227,-264.160,11.230,38.574
1642605464.471,15.625,33.203,-263.672,6.348,7.812
1642605464.475,21.484,30.273,-467.773,18.066,26.855
1642605464.479,20.020,24.902,-523.438,13.672,-15.137
1642605464.483,16.113,31.738,-65.430,6.836,57.129
1642605464.487,13.184,36.621,-8.789,9.277,90.332
1642605464.490,15.625,33.691,-115.723,16.113,38.574
1642605464.494,18.555,33.691,6.836,26.367,60.547
1642605464.498,13.184,32.715,12.207,20.508,42.969
1642605464.502,5.859,32.227,-140.137,11.719,33.691
1642605464.506,13.184,33.203,-177.246,18.555,55.664
1642605464.510,19.531,33.691,-212.891,27.832,72.754
1642605464.514,9.766,35.645,-200.195,27.344,91.797
1642605464.517,5.371,34.180,-277.344,10.742,76.660
1642605464.521,10.254,31.250,-564.453,3.906,43.945
1642605464.525,17.578,31.738,-258.301,20.020,31.738
1642605464.529,19.043,30.762,8.789,27.344,8.789
1642605464.533,2.930,29.785,-58.105,17.090,17.578
1642605464.534,0.488,30.273,-42.969,10.742,7.324
1642605464.538,18.555,31.738,20.996,18.555,24.414
1642605464.542,22.461,31.250,-22.461,21.973,51.270
1642605464.546,14.160,30.762,-120.605,13.672,28.809
1642605464.550,16.602,33.691,-99.121,9.277,28.320
1642605464.554,28.809,33.203,-171.875,16.602,41.992
1642605464.558,29.785,32.715,-224.121,25.879,40.039
1642605464.561,24.414,35.156,-413.086,20.996,12.695
1642605464.565,24.902,36.621,-400.391,14.648,16.113
1642605464.569,32.227,39.062,-42.969,22.461,72.754
1642605464.573,27.344,32.715,-81.055,29.785,99.609
1642605464.577,17.578,27.832,-180.176,28.320,63.965
1642605464.579,17.090,30.273,-79.590,18.066,27.344
1642605464.583,22.461,24.902,-11.719,13.672,42.969
1642605464.587,29.297,25.391,-200.684,25.879,20.508
1642605464.591,21.973,29.297,-270.020,28.320,4.883
1642605464.595,6.348,27.344,-88.379,19.043,63.965
1642605464.599,10.742,31.250,-177.734,22.949,84.961
1642605464.603,17.090,31.738,-396.973,35.645,101.074
1642605464.606,12.695,30.273,-445.801,39.551,121.094
1642605464.610,4.883,29.785,-178.223,27.344,95.215
1642605464.614,-1.953,28.809,-79.102,20.508,58.594
1642605464.618,7.324,30.273,-167.969,26.367,74.219
1642605464.622,10.254,30.762,-120.117,30.273,104.492
1642605464.625,1.953,35.645,28.809,26.855,100.586
1642605464.629,0.000,37.109,-114.746,18.555,55.176
1642605464.633,4.883,34.180,-322.266,19.043,41.016
1642605464.637,18.066,35.645,-183.594,29.297,67.871
1642605464.641,23.926,38.086,-65.430,40.039,63.477
1642605464.645,12.695,33.691,-242.188,28.320,21.973
1642605464.649,3.906,26.855,-565.430,10.254,-39.062
1642605464.652,11.230,28.320,-464.844,23.438,-32.227
1642605464.656,17.578,37.598,-90.332,31.250,2.441
1642605464.660,10.254,37.109,-170.410,18.555,0.977
1642605464.664,6.348,33.203,-294.434,8.789,-19.043
1642605464.668,17.090,35.156,-135.742,20.996,-26.367
1642605464.685,20.020,32.227,-6.836,34.668,10.742
1642605464.689,15.137,27.344,-106.445,29.297,29.297
1642605464.693,16.602,30.762,-153.809,20.996,38.086
1642605464.697,20.508,30.762,-69.336,25.879,54.688
1642605464.701,22.461,31.250,-87.402,33.691,41.992
1642605464.705,16.113,32.715,-343.262,29.785,25.879
1642605464.709,6.348,29.297,-675.293,15.137,-6.836
1642605464.712,15.625,32.715,-371.094,12.695,39.062
1642605464.716,22.949,33.691,-24.902,22.461,84.473
1642605464.720,8.301,29.297,-120.117,20.996,61.035
1642605464.724,-3.418,29.297,-183.105,7.812,72.266
1642605464.728,5.859,32.227,-165.039,3.906,84.961
1642605464.729,11.230,31.738,-160.645,18.555,53.711
1642605464.733,14.160,30.762,-173.340,24.414,56.152
1642605464.737,15.625,29.297,-89.844,12.207,105.957
1642605464.741,13.184,30.762,-60.547,9.766,105.957
1642605464.745,20.508,34.180,-98.633,19.531,80.078
1642605464.749,22.461,32.715,-216.309,27.832,57.129
1642605464.753,5.371,33.203,-230.957,19.531,77.637
1642605464.756,-0.488,33.691,-192.871,4.883,93.262
1642605464.760,14.160,31.250,-152.832,12.207,85.449
1642605464.764,18.555,26.367,-407.715,21.973,57.129
1642605464.768,15.137,27.832,-470.703,19.531,13.672
1642605464.772,6.836,34.180,-46.875,12.695,64.941
1642605464.775,10.254,33.203,-54.199,15.625,72.266
1642605464.779,45.410,27.832,-110.352,29.785,38.574
1642605464.783,94.238,31.250,-1.953,28.320,53.711
1642605464.787,90.820,34.668,-6.348,18.066,47.852
1642605464.791,41.016,30.762,-126.953,7.324,24.902
1642605464.795,40.527,28.809,-280.273,16.602,-4.883
1642605464.799,50.293,33.203,-219.727,25.879,25.391
1642605464.802,37.598,33.691,-22.949,16.113,56.641
1642605464.806,45.898,33.203,-223.633,10.742,50.293
1642605464.810,56.152,33.203,-510.742,13.184,23.438
1642605464.814,47.363,32.715,-226.562,21.973,43.457
1642605464.818,31.738,32.715,35.156,18.555,104.980
1642605464.819,21.484,30.273,-157.715,7.324,74.707
1642605464.823,16.602,30.273,-187.988,16.602,39.062
1642605464.827,18.555,33.203,15.137,30.273,80.566
1642605464.831,14.648,34.180,22.461,29.785,83.496
1642605464.835,11.230,33.203,-103.027,19.531,24.902
1642605464.839,21.973,30.273,-193.359,16.113,46.387
1642605464.843,29.785,27.344,-141.113,25.391,60.547
1642605464.846,17.090,27.832,-46.875,31.250,6.836
1642605464.850,2.930,25.879,-372.070,23.438,-24.902
1642605464.854,11.230,29.297,-402.344,18.066,4.883
1642605464.858,19.531,31.738,-8.301,30.273,59.570
1642605464.862,19.043,33.691,-64.941,41.504,54.688
1642605464.865,9.766,35.156,-209.473,35.645,54.199
1642605464.869,10.742,32.715,-124.512,28.320,72.754
1642605464.873,31.250,31.738,-3.418,37.109,72.754
1642605464.877,37.109,30.273,-135.254,46.875,51.758
1642605464.881,28.809,30.762,-223.145,41.504,77.637
1642605464.885,19.531,34.668,-240.723,26.367,54.688
1642605464.889,12.695,30.273,-266.113,21.484,57.617
1642605464.892,15.137,27.344,-318.359,28.809,73.730
1642605464.896,9.766,29.297,-412.598,23.926,60.547
1642605464.900,2.441,26.855,-156.738,10.742,72.266
1642605464.904,0.977,25.391,-45.898,9.766,34.668
1642605464.908,5.859,29.785,-111.328,22.461,-36.133
1642605464.909,4.395,34.668,-108.887,25.879,-58.594
1642605464.913,3.418,35.156,-80.566,19.043,-45.410
1642605464.917,3.906,34.668,-115.723,13.672,16.602
1642605464.921,7.324,33.691,-201.660,19.531,38.574
1642605464.925,8.301,31.250,-146.973,28.809,42.969
1642605464.929,1.465,31.250,-176.758,24.414,81.055
1642605464.933,2.441,30.273,-280.273,22.949,70.801
1642605464.936,10.742,27.344,-571.777,25.879,29.785
1642605464.940,18.555,34.668,-599.121,33.203,30.273
1642605464.944,17.090,39.062,-125.488,39.551,70.801
1642605464.948,9.766,33.203,-137.695,27.832,65.430
1642605464.952,15.137,30.273,-253.906,29.785,9.766
1642605464.955,27.344,33.691,-60.059,41.992,56.641
1642605464.959,27.832,34.668,-31.250,37.598,78.613
1642605464.963,19.043,31.738,-207.031,30.762,20.996
1642605464.967,23.438,31.250,-223.633,29.785,59.082
1642605464.971,30.273,30.273,-132.324,34.668,56.152
1642605464.975,21.484,31.250,-232.910,27.832,50.781
1642605464.979,7.812,31.738,-426.758,10.254,57.617
1642605464.982,-0.977,26.855,-681.152,5.859,29.297
1642605464.986,7.324,29.297,-430.176,10.742,54.688
1642605464.990,14.160,35.156,-88.867,21.973,77.637
1642605464.994,1.465,33.691,-136.230,14.160,72.266
1642605464.998,-8.789,30.762,-191.406,3.906,11.719
1642605464.999,0.977,30.762,-108.398,14.160,46.875
1642605465.003,12.207,30.273,-90.820,26.367,65.918
1642605465.007,3.418,30.762,-218.262,25.879,8.301
1642605465.011,-4.883,32.715,-212.402,8.789,45.410
1642605465.015,0.977,28.809,-94.238,7.812,40.039
1642605465.019,9.277,31.738,-149.902,22.949,41.016
1642605465.023,3.418,32.715,-501.465,23.926,10.742
1642605465.026,-2.441,28.809,-441.895,13.672,-14.648
1642605465.030,-0.977,27.832,-96.680,8.301,51.270
1642605465.034,9.277,29.297,-208.984,16.602,78.125
1642605465.038,12.207,33.203,-359.375,23.438,44.922
1642605465.042,4.883,35.156,-187.012,16.113,46.875
1642605465.044,4.395,34.668,-27.344,10.254,71.289
1642605465.048,15.137,34.180,-150.391,15.137,61.035
1642605465.052,24.414,38.574,-225.098,27.344,89.844
1642605465.056,31.250,40.527,-94.238,37.109,91.309
1642605465.060,27.832,46.387,-79.590,27.344,60.547
1642605465.064,11.230,45.410,-370.605,7.324,41.504
1642605465.068,15.625,41.504,-485.352,14.160,53.711
1642605465.071,13.672,38.574,-156.738,18.066,78.125
1642605465.075,0.488,38.574,-78.125,2.441,40.527
1642605465.079,1.953,40.527,-234.375,-0.488,33.203
1642605465.083,5.859,40.039,-194.336,8.789,66.895
1642605465.087,6.836,39.062,-127.441,16.113,33.203
1642605465.106,1.465,35.645,-168.945,13.672,21.973
1642605465.110,6.348,35.645,-326.660,4.395,27.344
1642605465.114,16.113,33.691,-295.898,13.184,29.785
1642605465.118,11.719,31.738,-72.754,20.020,33.691
1642605465.122,-5.371,31.250,-168.945,8.301,-10.254
1642605465.126,-15.137,27.832,-393.066,3.418,-36.133
1642605465.130,-7.324,25.879,-320.312,9.277,4.395
1642605465.133,0.488,27.832,-95.703,21.484,10.742
1642605465.137,-5.371,27.832,-144.043,17.090,18.066
1642605465.141,-7.324,27.832,-430.664,1.953,9.277
1642605465.145,7.324,27.832,-362.305,8.301,10.254
1642605465.149,17.090,27.344,-138.184,20.996,36.133
1642605465.150,14.648,25.879,-200.684,21.484,21.973
1642605465.154,13.672,24.414,-211.426,13.184,44.434
1642605465.158,20.996,25.391,-257.324,11.719,45.410
1642605465.162,36.133,30.273,-255.371,29.297,34.668
1642605465.166,33.691,28.320,-253.418,34.668,7.812
1642605465.170,16.113,22.949,-421.387,21.973,1.953
1642605465.174,20.508,27.832,-403.320,17.090,44.434
1642605465.177,34.668,29.785,-196.289,21.484,34.668
1642605465.181,31.738,27.344,-244.141,29.297,28.320
1642605465.185,18.066,24.414,-666.016,23.926,-17.578
1642605465.189,20.020,27.344,-469.238,11.719,-27.344
1642605465.193,29.297,32.227,-81.543,15.137,7.812
1642605465.194,25.391,29.785,-86.914,24.414,50.781
1642605465.198,16.113,30.762,-112.305,21.484,19.531
1642605465.202,9.766,29.785,-94.238,10.254,1.953
1642605465.206,18.066,30.273,-116.211,10.742,41.504
1642605465.210,24.902,31.738,-175.781,16.602,24.902
1642605465.214,15.137,26.855,-283.691,13.672,4.395
1642605465.218,4.395,21.484,-320.801,7.812,6.836
1642605465.221,7.812,23.438,-258.301,6.348,36.621
1642605465.225,13.672,22.461,-508.301,12.695,46.387
1642605465.229,13.672,23.926,-538.574,15.137,24.902
1642605465.233,4.883,31.250,-159.668,4.395,5.859
1642605465.237,-3.906,28.320,-167.969,0.000,8.301
1642605465.240,5.371,25.879,-158.203,9.766,42.969
1642605465.244,11.719,23.438,-48.340,16.602,36.133
1642605465.248,-0.977,20.020,-36.133,5.859,45.410
1642605465.252,-11.230,19.043,-191.895,0.488,70.312
1642605465.256,7.812,21.973,-203.613,18.066,82.520
1642605465.260,21.484,24.902,-197.266,31.250,76.660
1642605465.264,8.789,23.926,-155.762,27.832,107.422
1642605465.267,-0.488,21.973,-210.938,16.602,103.516
1642605465.271,12.207,18.555,-564.941,20.996,19.531
1642605465.275,38.086,26.367,-286.133,41.016,36.621
1642605465.279,51.758,36.133,36.621,59.570,43.945
1642605465.283,30.762,28.320,-69.824,41.504,13.184
1642605465.284,12.695,19.531,-63.965,8.789,45.410
1642605465.288,31.250,18.555,97.656,24.414,61.523
1642605465.292,50.781,20.020,230.469,48.340,70.312
1642605465.296,49.805,16.602,257.812,42.969,56.641
1642605465.300,50.781,10.742,355.957,46.387,46.875
1642605465.304,64.453,10.254,474.121,62.988,88.379
1642605465.308,76.660,8.301,479.980,77.148,50.781
1642605465.311,78.613,1.953,447.266,88.867,5.371
1642605465.315,78.125,5.859,570.312,83.496,55.664
1642605465.319,83.496,16.113,678.711,84.473,41.504
1642605465.323,91.309,17.090,552.246,95.215,2.930
1642605465.327,86.426,15.625,362.305,97.168,19.043
1642605465.329,76.660,17.090,457.031,89.844,16.602
1642605465.333,76.660,16.602,613.770,91.309,51.758
1642605465.337,83.496,15.625,399.414,103.027,62.012
1642605465.341,79.590,15.137,228.027,100.098,49.805
1642605465.345,67.871,13.184,369.141,89.844,57.617
1642605465.349,62.500,14.648,311.523,89.844,45.410
1642605465.353,69.824,19.531,41.016,89.844,-5.371
1642605465.356,73.242,19.531,-128.418,91.309,-44.434
1642605465.360,62.988,23.438,101.074,80.078,-0.977
1642605465.364,51.758,28.809,244.141,71.289,30.273
1642605465.368,58.594,26.855,183.105,84.473,19.531
1642605465.372,64.941,24.414,123.535,89.844,15.137
1642605465.376,50.781,24.902,186.035,82.520,48.340
1642605465.380,30.762,23.438,39.551,67.383,40.039
1642605465.384,25.391,20.996,-222.656,64.941,25.879
1642605465.388,30.273,19.043,-85.449,73.242,51.758
1642605465.392,26.855,19.043,65.430,73.730,67.871
1642605465.396,17.578,20.508,-76.172,66.406,46.387
1642605465.400,18.066,20.996,-392.578,62.988,4.395
1642605465.403,33.203,21.973,-315.918,69.336,18.555
1642605465.407,36.621,22.461,69.336,73.730,97.168
1642605465.411,28.320,18.555,-30.273,61.523,87.891
1642605465.415,30.762,24.414,-164.551,50.293,81.055
1642605465.419,46.387,34.668,-82.520,58.594,120.605
1642605465.419,49.805,35.645,-31.738,62.988,145.508
1642605465.423,36.621,36.133,-153.320,49.805,95.215
1642605465.427,39.062,35.156,-250.000,43.945,27.832
1642605465.431,51.758,32.715,-143.555,48.828,30.762
1642605465.435,52.246,33.691,-153.320,58.105,24.414
1642605465.439,40.039,35.156,-381.348,54.688,21.484
1642605465.443,24.902,33.691,-729.492,33.691,-26.855
1642605465.446,26.367,37.109,-488.770,29.297,-24.414
1642605465.450,28.320,38.086,-83.008,36.621,41.504
1642605465.454,15.137,30.273,-143.066,33.691,31.738
1642605465.458,3.906,31.250,-217.773,25.879,18.066
1642605465.462,5.859,33.691,-185.547,18.066,56.152
1642605465.480,11.719,29.297,-160.156,21.484,93.262
1642605465.484,17.578,29.785,-240.723,23.926,72.754
1642605465.488,17.578,31.738,-237.793,15.137,48.828
1642605465.492,18.555,33.691,-120.605,16.602,63.965
1642605465.496,32.227,33.203,-179.688,30.273,38.574
1642605465.500,40.527,33.203,-322.266,41.504,40.527
1642605465.504,37.109,34.668,-215.820,30.762,59.570
1642605465.507,34.180,31.250,-190.430,15.625,16.602
1642605465.511,42.480,30.273,-266.602,23.438,33.691
1642605465.515,50.293,33.203,-493.652,30.762,26.367
1642605465.519,37.598,32.227,-465.332,20.020,13.184
1642605465.523,33.691,31.250,-100.098,10.254,31.250
1642605465.525,45.898,31.250,-155.273,17.090,3.906
1642605465.529,49.805,32.227,-257.324,31.250,2.930
1642605465.533,43.457,35.645,-94.238,36.133,40.527
1642605465.537,27.344,34.668,-45.898,21.973,22.949
1642605465.541,27.832,28.809,-209.961,7.324,-2.441
1642605465.545,35.645,29.297,-317.871,18.555,6.836
1642605465.549,35.156,34.180,-314.941,32.227,-12.695
1642605465.552,38.086,37.109,-215.820,28.809,-31.738
1642605465.556,36.133,34.180,-388.672,26.855,-32.227
1642605465.560,42.480,32.227,-535.645,31.738,-38.086
1642605465.564,43.457,34.180,-283.203,37.598,-0.977
1642605465.568,28.809,36.133,-167.969,33.691,4.883
1642605465.569,29.785,41.016,-244.141,24.902,-16.602
1642605465.573,38.574,43.945,-252.930,31.250,-5.371
1642605465.577,40.527,46.875,-60.547,36.133,19.531
1642605465.581,28.320,44.434,-59.570,32.227,-1.465
1642605465.585,12.695,40.527,-154.297,22.461,-17.578
1642605465.589,17.578,41.992,-279.785,17.578,3.418
1642605465.593,27.832,41.016,-224.609,25.391,51.758
1642605465.596,22.461,42.480,-119.629,24.414,83.008
1642605465.600,13.672,42.480,-456.055,15.625,-1.465
1642605465.604,15.625,46.387,-439.453,13.672,-22.949
1642605465.608,22.461,46.875,-50.293,23.438,45.898
1642605465.612,25.879,43.457,-53.711,28.320,28.809
1642605465.615,17.578,40.527,-179.688,15.137,9.766
1642605465.619,14.648,37.109,-164.062,9.277,26.367
1642605465.623,26.367,38.086,-41.016,18.555,66.895
1642605465.627,32.715,37.598,-145.020,31.250,55.664
1642605465.631,19.043,30.273,-282.227,27.344,-3.906
1642605465.635,7.812,31.250,-289.551,15.625,-11.719
1642605465.639,17.578,38.086,-272.949,22.461,34.180
1642605465.642,28.809,36.621,-298.828,38.086,20.996
1642605465.646,19.531,34.180,-450.684,33.691,-20.996
1642605465.650,6.348,33.691,-214.844,21.973,31.738
1642605465.654,9.277,32.715,-43.457,21.973,60.059
1642605465.658,11.719,32.227,-145.508,28.809,62.012
1642605465.659,6.836,32.715,-138.184,31.250,82.520
1642605465.663,-4.883,33.691,-51.270,21.973,74.707
1642605465.667,-1.465,34.180,-62.500,18.555,34.180
1642605465.671,11.719,31.738,-204.102,30.273,27.832
1642605465.675,10.254,27.832,-231.445,37.598,49.316
1642605465.679,-0.977,24.414,-221.680,28.320,26.367
1642605465.683,-2.930,31.250,-245.605,18.555,28.809
1642605465.686,5.859,31.738,-462.402,23.438,13.672
1642605465.690,7.812,29.785,-531.250,26.367,-35.156
1642605465.694,7.812,38.086,-92.773,26.367,8.789
1642605465.698,5.859,37.598,-97.168,22.949,21.484
1642605465.702,8.301,33.203,-214.844,25.879,2.930
1642605465.704,23.438,32.715,-65.918,32.715,18.555
1642605465.708,25.391,29.785,3.418,31.738,25.391
1642605465.712,14.160,29.785,-125.000,26.367,4.883
1642605465.716,20.996,37.109,-155.762,26.855,20.508
1642605465.720,31.250,38.086,-84.961,33.691,24.902
1642605465.724,24.902,37.109,-143.555,33.203,26.367
1642605465.728,10.742,32.227,-400.879,18.555,8.301
1642605465.731,12.207,28.809,-729.980,9.766,-14.648
1642605465.735,24.902,37.109,-417.480,18.555,24.414
1642605465.739,21.973,33.691,-58.105,28.809,14.160
1642605465.743,9.766,30.762,-156.250,15.625,-15.625
1642605465.747,1.953,35.156,-212.402,-3.418,-2.930
1642605465.750,9.766,34.180,-104.980,7.324,11.230
1642605465.754,5.371,33.203,-91.797,18.555,-0.488
1642605465.758,-7.812,31.738,-161.133,10.742,6.836
1642605465.762,-18.066,30.762,-125.488,-2.930,10.742
1642605465.766,-16.113,28.320,-48.340,2.441,2.441
1642605465.770,-9.277,24.414,-124.512,18.066,-14.648
1642605465.774,-16.113,20.508,-450.684,16.113,-14.648
1642605465.777,-14.648,23.438,-407.715,12.207,-12.695
1642605465.781,-7.812,31.738,-80.566,5.371,6.348
1642605465.785,6.348,29.785,-170.410,20.020,49.805
1642605465.789,13.672,23.926,-241.211,32.227,35.645
1642605465.793,3.906,25.879,-75.684,12.207,23.926
1642605465.795,7.812,33.203,-29.297,13.672,28.809
1642605465.799,19.531,36.621,-110.352,26.855,54.199
1642605465.803,20.508,33.203,-125.488,27.344,56.641
1642605465.807,16.113,35.156,-13.184,25.879,70.312
1642605465.811,17.578,34.180,26.855,16.113,109.863
1642605465.815,30.762,30.762,-286.621,19.043,39.062
1642605465.819,43.457,38.574,-367.676,29.785,51.270
1642605465.822,37.598,37.598,-20.996,28.809,109.863
1642605465.826,6.348,27.344,55.664,10.254,97.656
1642605465.830,7.812,27.344,-155.273,6.836,61.523
1642605465.834,28.320,33.691,-147.461,28.320,23.438
1642605465.838,16.113,31.738,-7.812,22.949,-4.395
1642605465.854,5.371,23.438,-153.320,5.859,-8.301
1642605465.858,10.742,28.320,-199.219,4.883,-7.324
1642605465.862,16.113,34.180,-103.027,15.137,7.324
1642605465.866,12.695,34.180,0.488,18.066,32.715
1642605465.870,0.977,37.109,1.953,9.766,17.578
1642605465.874,-1.953,36.133,-395.508,6.348,0.977
1642605465.878,5.371,33.691,-475.586,6.836,-20.996
1642605465.881,12.207,36.621,-1.465,18.555,-4.883
1642605465.885,-3.906,36.621,-23.926,16.113,16.602
1642605465.889,-8.789,32.227,-239.258,10.254,9.766
1642605465.893,14.160,34.668,-147.461,21.973,-0.488
1642605465.897,23.926,39.062,-29.297,32.715,-6.836
1642605465.899,16.602,35.645,-136.719,27.344,-36.133
1642605465.903,20.020,35.156,-165.039,17.090,-6.836
1642605465.907,30.762,35.645,-116.699,18.555,31.738
1642605465.911,36.133,35.156,-104.980,27.832,41.016
1642605465.915,32.715,33.691,-211.914,29.297,-7.812
1642605465.919,24.414,29.297,-407.227,18.066,-20.996
1642605465.923,31.250,28.320,-319.824,10.742,12.695
1642605465.926,40.527,31.738,-126.465,19.531,34.668
1642605465.930,37.109,36.133,-257.812,24.414,26.855
1642605465.934,27.832,32.227,-452.148,10.742,16.602
1642605465.938,26.367,29.785,-157.715,6.348,7.812
1642605465.942,38.086,33.691,-36.133,19.043,20.508
1642605465.944,41.992,34.668,-136.719,27.344,31.738
1642605465.948,30.273,31.250,-143.066,26.367,18.555
1642605465.952,17.578,32.715,-87.402,15.625,22.461
1642605465.956,13.672,28.320,-169.922,9.766,14.160
1642605465.960,21.973,26.855,-203.125,25.879,38.574
1642605465.964,11.719,29.297,-230.957,27.832,53.711
1642605465.968,-2.441,25.879,-331.543,14.160,71.777
1642605465.971,7.324,28.809,-282.715,17.578,52.246
1642605465.975,17.578,29.785,-469.727,34.668,0.977
1642605465.979,10.742,23.438,-471.191,29.297,17.578
1642605465.983,-0.977,25.391,-73.242,16.113,76.172
1642605465.987,2.441,27.832,-166.992,14.648,36.621
1642605465.990,15.137,28.809,-223.145,18.555,11.230
1642605465.994,13.672,30.762,-7.324,26.367,57.617
1642605465.998,2.930,29.297,-9.277,18.555,38.574
1642605466.002,2.930,28.809,-173.340,12.695,8.789
1642605466.006,14.160,28.809,-163.086,22.461,44.922
1642605466.010,16.113,25.391,-176.758,20.996,73.730
1642605466.014,8.301,29.785,-153.320,15.137,40.527
1642605466.017,6.836,37.109,-205.078,7.812,37.109
1642605466.021,13.184,34.668,-481.934,4.395,31.250
1642605466.025,22.949,35.645,-174.805,19.043,59.082
1642605466.029,13.672,34.180,53.711,19.043,79.102
1642605466.033,7.324,27.344,-120.117,13.184,50.293
1642605466.034,15.625,30.762,-104.492,15.137,44.434
1642605466.038,21.484,36.621,-1.953,23.438,50.293
1642605466.042,20.996,35.156,-30.273,34.668,31.738
1642605466.046,16.602,32.227,-84.473,23.926,13.184
1642605466.050,20.508,31.250,-98.145,14.160,-12.695
1642605466.054,34.180,32.227,-194.336,19.531,15.137
1642605466.058,34.668,32.227,-181.152,22.949,51.758
1642605466.061,23.438,30.273,-350.098,15.625,63.477
1642605466.065,24.414,32.715,-334.961,6.836,68.848
1642605466.069,26.855,37.109,1.953,11.719,60.547
1642605466.073,31.738,40.039,-29.297,18.066,65.430
1642605466.077,26.855,37.598,-122.070,15.625,50.781
1642605466.080,11.719,35.645,-104.004,11.719,22.461
1642605466.084,10.742,33.203,-51.758,13.184,41.504
1642605466.088,14.648,31.250,-194.336,21.973,30.273
1642605466.092,12.695,34.180,-330.566,20.996,-22.949
1642605466.096,7.324,38.086,-175.781,11.230,-13.672
1642605466.100,13.184,37.598,-180.664,13.672,20.996
1642605466.104,22.461,35.156,-396.484,27.832,10.254
1642605466.107,15.137,31.738,-498.535,29.785,-20.020
1642605466.111,15.137,26.855,-219.727,28.320,-23.926
1642605466.115,35.156,35.645,-56.641,44.922,-26.855
1642605466.119,36.621,50.293,-144.531,37.109,-34.668
1642605466.123,14.160,55.664,-107.422,14.648,-28.320
1642605466.125,6.836,53.711,13.672,6.836,24.414
1642605466.129,9.277,48.340,-20.996,1.465,28.320
1642605466.133,17.578,46.387,-155.273,8.789,-35.156
1642605466.137,20.996,46.387,-73.242,21.973,-38.086
1642605466.141,2.441,41.016,76.172,15.625,0.977
1642605466.145,-5.859,37.598,-78.125,6.836,-0.488
1642605466.149,2.441,40.039,-457.520,13.672,-34.668
1642605466.152,7.812,45.410,-480.957,20.508,-37.109
1642605466.156,7.324,42.480,-67.871,17.578,-21.484
1642605466.160,-2.930,34.668,-88.379,6.836,16.602
1642605466.164,-3.418,38.574,-177.734,-0.488,9.766
1642605466.168,7.812,42.480,16.113,9.277,20.508
1642605466.185,7.812,39.062,83.496,23.926,37.109
1642605466.189,-6.836,39.551,-70.312,20.020,-1.465
1642605466.193,-9.277,38.086,-128.906,13.184,31.250
1642605466.197,6.348,37.109,-29.297,26.367,43.945
1642605466.201,13.184,37.109,-58.105,32.715,27.832
1642605466.205,1.953,34.668,-302.734,21.484,21.973
1642605466.209,0.000,31.738,-589.355,12.695,1.465
1642605466.212,18.066,37.598,-364.258,17.578,-25.879
1642605466.216,32.715,43.945,-93.750,29.785,-25.391
1642605466.220,25.391,41.504,-116.699,28.809,0.977
1642605466.224,16.113,41.016,-100.098,18.555,6.836
1642605466.228,20.020,36.133,-122.070,15.625,-24.902
1642605466.229,27.832,36.133,-102.051,20.996,-13.184
1642605466.233,24.902,38.086,-139.160,27.832,26.367
1642605466.237,12.207,35.645,-176.270,19.043,22.949
1642605466.241,14.160,34.180,-161.621,10.742,3.906
1642605466.245,27.832,34.180,-202.637,14.648,-15.137
1642605466.249,26.855,32.227,-351.074,22.461,-39.551
1642605466.253,13.184,31.250,-338.867,14.648,-22.949
1642605466.256,7.324,32.715,-191.406,0.488,0.488
1642605466.260,16.602,33.203,-160.645,9.766,1.953
1642605466.264,13.184,33.691,-421.387,9.277,-30.762
1642605466.268,8.789,35.645,-530.762,-2.441,-62.012
1642605466.272,10.254,38.086,-145.996,-5.859,-28.809
1642605466.275,12.207,39.062,-124.023,-2.930,-0.977
1642605466.279,19.043,35.156,-165.527,12.695,-5.859
1642605466.283,12.695,30.273,-50.781,10.254,-14.648
1642605466.287,6.348,28.320,-23.438,0.488,-3.418
1642605466.291,10.254,25.879,-121.094,4.883,-14.648
1642605466.295,20.020,27.344,-222.656,18.555,10.742
1642605466.299,26.855,32.715,-257.324,27.344,-1.953
1642605466.302,20.996,36.621,-153.320,20.508,4.883
1642605466.306,13.672,34.180,-258.789,15.137,46.387
1642605466.310,21.973,31.250,-433.105,18.555,-20.020
1642605466.314,26.367,35.156,-216.797,22.949,-49.316
1642605466.318,15.625,37.109,-80.566,20.996,-14.648
1642605466.320,20.020,40.039,-230.469,13.672,-32.715
1642605466.324,32.227,44.434,-274.902,14.648,-15.137
1642605466.328,35.645,42.969,-86.914,17.090,-8.301
1642605466.332,28.320,41.992,-130.371,13.184,-62.988
1642605466.336,23.438,41.992,-229.980,7.812,-80.566
1642605466.340,27.344,40.527,-293.457,6.348,-42.480
1642605466.344,33.691,40.039,-298.828,15.137,-12.207
1642605466.347,28.809,45.898,-148.926,17.090,39.551
1642605466.351,20.508,46.875,-431.152,6.348,14.648
1642605466.355,23.926,42.969,-470.703,4.883,-33.203
1642605466.359,31.250,43.945,-88.867,20.020,-3.906
1642605466.363,41.016,45.898,-140.137,37.598,-16.602
1642605466.365,38.574,48.828,-264.160,40.039,-31.738
1642605466.369,19.531,48.828,-211.426,21.973,-16.602
1642605466.373,5.371,49.805,-51.758,6.348,-3.418
1642605466.377,6.348,45.898,-166.992,12.695,-23.438
1642605466.381,-9.277,40.527,-336.914,12.207,-40.039
1642605466.385,-22.461,36.621,-266.113,1.465,-4.395
1642605466.389,-12.207,32.715,-183.594,7.324,21.484
1642605466.392,-10.742,29.785,-294.434,19.531,-29.297
1642605466.396,-22.461,26.367,-485.352,16.113,-31.738
1642605466.400,-22.461,29.785,-203.613,10.742,-15.625
1642605466.404,-11.230,35.156,-127.441,10.742,-64.941
1642605466.408,-2.441,38.574,-225.098,17.578,-45.410
1642605466.409,-4.883,39.062,-167.480,16.602,-10.254
1642605466.413,-11.719,35.156,-128.906,0.977,-21.973
1642605466.417,2.930,35.645,-165.039,1.465,-29.785
1642605466.421,20.996,41.016,-245.117,13.672,-38.086
1642605466.425,15.137,38.086,-336.914,18.066,-43.945
1642605466.429,8.301,40.039,-333.984,14.648,-22.461
1642605466.433,12.207,43.457,-316.406,5.371,-28.809
1642605466.436,20.020,40.039,-564.453,13.184,-51.758
1642605466.440,17.578,39.062,-580.078,16.602,-79.590
1642605466.444,8.301,38.574,-186.035,4.395,-48.340
1642605466.448,3.906,36.621,-199.707,-1.953,-10.254
1642605466.452,13.184,37.109,-221.191,5.859,6.836
1642605466.454,27.344,39.551,-92.285,19.531,1.465
1642605466.458,17.578,38.086,-65.430,8.789,-20.508
1642605466.462,3.906,36.133,-197.754,2.930,-46.875
1642605466.466,7.812,36.621,-251.465,7.324,-27.832
1642605466.470,26.855,38.086,-148.926,17.578,-24.414
1642605466.474,27.344,36.621,-218.262,26.367,-21.484
1642605466.478,12.207,37.598,-410.645,17.578,-5.859
1642605466.481,15.625,38.574,-686.035,12.695,-47.852
1642605466.485,29.785,34.180,-450.195,25.391,-36.621
1642605466.489,28.809,32.715,-131.836,29.785,-42.969
1642605466.493,5.859,32.715,-219.238,15.137,-50.781
1642605466.497,-4.395,33.203,-237.305,6.836,-14.648
1642605466.499,9.766,30.762,-142.578,17.090,2.930
1642605466.503,5.859,26.855,-133.789,23.438,-27.832
1642605466.507,-2.441,29.297,-212.402,19.043,-34.668
1642605466.511,-1.953,31.738,-196.289,8.301,-31.250
1642605466.515,-4.395,34.180,-158.203,4.395,-29.297
1642605466.519,1.953,35.156,-269.043,12.695,-30.273
1642605466.523,4.883,32.227,-550.293,15.625,-62.012
1642605466.526,-1.465,32.715,-492.676,8.301,-58.105
1642605466.530,7.324,35.645,-130.859,9.277,-23.438
1642605466.534,16.113,34.668,-215.820,19.531,-3.418
1642605466.538,13.184,33.691,-304.199,21.973,31.738
1642605466.542,12.695,39.062,-77.637,14.648,63.965
1642605466.559,16.602,38.574,-91.797,11.719,47.363
1642605466.563,22.461,40.527,-181.641,14.648,42.480
1642605466.567,21.973,43.945,-120.117,20.020,66.895
1642605466.571,16.602,42.969,-61.523,23.926,46.875
1642605466.575,16.602,41.992,-87.891,19.043,20.020
1642605466.579,28.809,40.527,-333.496,18.555,21.484
1642605466.583,26.367,36.133,-510.254,22.461,17.578
1642605466.586,12.695,38.574,-229.492,18.555,14.648
1642605466.590,7.324,42.969,-53.711,13.184,31.738
1642605466.594,9.277,39.062,-142.090,12.207,12.207
1642605466.598,13.184,40.039,-137.207,19.043,-21.973
1642605466.602,10.254,42.969,-25.391,20.508,20.020
1642605466.591,6.348,42.969,-146.484,13.184,-3.906
1642605466.595,16.113,40.039,-367.188,24.414,-82.520
1642605466.599,7.812,32.227,-291.016,25.391,-95.215
1642605466.603,-20.508,26.367,-95.703,7.812,-14.160
1642605466.607,-23.926,25.879,-108.398,5.859,2.930
1642605466.611,-9.277,27.344,-250.488,14.160,-33.203
1642605466.615,-0.488,28.809,-322.266,19.531,-27.832
1642605466.618,10.742,30.762,-155.273,28.320,-36.133
1642605466.622,5.859,30.273,-96.680,22.949,-24.902
1642605466.626,-10.742,25.879,-459.961,5.859,-48.828
1642605466.630,-0.488,27.344,-445.312,12.695,-47.852
1642605466.634,10.742,36.133,-69.336,32.715,-4.395
1642605466.650,4.395,34.668,-167.969,28.320,-3.906
1642605466.654,3.906,32.715,-210.938,19.043,26.367
1642605466.658,16.113,35.156,-137.207,19.531,39.551
1642605466.662,30.273,38.086,-109.375,28.320,39.551
1642605466.666,22.461,36.621,-156.738,27.344,49.316
1642605466.670,6.348,30.273,-488.281,10.742,20.020
1642605466.674,16.113,36.621,-346.191,10.742,22.949
1642605466.677,32.227,38.086,-44.922,22.461,17.578
1642605466.681,32.227,32.715,-253.418,27.832,-43.945
1642605466.685,23.926,32.227,-405.762,21.973,-88.867
1642605466.689,20.020,37.598,-137.207,17.578,-26.367
1642605466.693,26.855,39.062,-25.391,24.414,7.812
1642605466.694,34.668,36.133,-75.684,28.320,-3.906
1642605466.698,22.949,34.668,-100.098,18.555,4.883
1642605466.702,19.531,33.203,-50.781,11.230,7.324
1642605466.706,27.344,33.691,-95.215,19.043,-10.742
1642605466.710,27.344,31.250,-208.008,29.297,-16.602
1642605466.714,17.578,30.273,-273.926,24.902,22.949
1642605466.718,13.184,32.227,-313.965,16.113,20.508
1642605466.721,19.531,34.668,-196.289,14.160,24.902
1642605466.725,22.461,33.203,-413.086,21.973,34.180
1642605466.729,19.531,37.598,-475.586,22.461,26.855
1642605466.733,18.066,42.969,-81.055,9.766,28.809
1642605466.737,17.090,34.668,-106.445,10.742,1.465
1642605466.740,21.973,32.227,-180.664,20.996,-5.859
1642605466.744,20.996,35.156,-66.406,28.320,20.508
1642605466.748,9.277,36.133,-22.461,23.926,16.602
1642605466.752,7.812,37.598,-144.531,12.207,-11.719
1642605466.756,22.949,35.645,-180.176,16.602,0.977
1642605466.760,31.250,31.250,-195.312,23.926,-10.742
1642605466.764,23.926,29.785,-246.582,15.625,-56.641
1642605466.767,17.090,30.762,-366.211,7.812,-67.871
1642605466.771,27.832,30.273,-579.590,8.789,-89.355
1642605466.775,41.992,32.715,-325.684,19.531,-72.266
1642605466.779,36.133,38.574,-59.570,24.414,-36.133
1642605466.783,22.461,33.691,-224.609,15.137,-33.203
1642605466.785,22.949,31.250,-248.047,13.184,-36.133
1642605466.789,27.344,32.227,-55.176,21.973,20.020
1642605466.793,25.879,29.785,-62.500,26.367,47.363
1642605466.797,20.996,31.250,-162.598,14.160,-23.438
1642605466.801,18.555,29.785,-172.363,9.277,-53.711
1642605466.805,24.902,26.855,-234.375,20.020,-35.645
1642605466.809,22.949,31.250,-219.238,21.973,-6.348
1642605466.812,11.719,28.320,-384.766,13.672,0.977
1642605466.816,7.324,24.902,-386.719,4.883,-14.648
1642605466.820,16.113,29.297,-19.043,13.184,4.395
1642605466.824,19.531,29.297,-68.359,19.531,-14.648
1642605466.828,8.301,28.320,-243.164,15.625,-50.293
1642605466.830,1.953,30.762,-216.797,10.742,-50.293
1642605466.834,12.207,32.715,-56.641,15.137,-42.969
1642605466.838,19.043,32.227,-128.418,28.320,-0.977
1642605466.842,8.789,28.320,-289.062,19.531,2.441
1642605466.846,7.812,32.227,-120.117,7.324,-0.977
1642605466.850,11.719,34.180,-160.156,5.859,20.020
1642605466.854,20.020,35.156,-409.180,15.137,2.441
1642605466.857,22.461,39.062,-448.730,24.902,23.926
1642605466.861,9.277,43.945,-164.062,9.277,65.430
1642605466.865,12.207,43.457,-26.855,3.906,45.410
1642605466.869,25.879,42.969,-123.047,19.531,21.973
1642605466.873,28.320,40.527,-74.707,26.855,40.039
1642605466.875,17.090,36.621,4.395,18.066,40.039
1642605466.879,8.301,37.598,-101.562,5.859,-12.695
1642605466.883,19.531,33.691,-222.168,14.160,-27.344
1642605466.887,24.414,30.762,-195.801,32.715,9.766
1642605466.891,16.602,33.691,-125.000,32.715,5.859
1642605466.895,12.207,35.156,-201.660,27.344,-6.348
1642605466.899,19.043,31.738,-601.074,21.973,-20.020
1642605466.902,27.832,31.250,-664.551,24.902,-6.836
1642605466.906,23.438,34.180,-223.633,34.180,16.113
1642605466.910,11.230,33.203,-189.453,25.391,6.348
1642605466.914,12.695,30.273,-257.812,23.438,11.230
1642605466.918,19.531,30.273,-133.301,31.738,-5.371
1642605466.935,17.578,30.762,-52.246,32.715,-2.441
1642605466.939,9.277,29.785,-127.441,28.320,17.090
1642605466.943,2.930,27.832,-234.863,15.625,6.348
1642605466.947,7.324,28.320,-137.695,18.555,0.488
1642605466.951,12.207,27.832,8.301,20.508,38.086
1642605466.955,8.301,26.855,-276.367,12.207,34.180
1642605466.959,3.418,27.344,-616.211,6.836,-30.762
1642605466.962,12.207,27.832,-339.355,9.277,-20.020
1642605466.966,26.855,25.879,-58.105,26.367,47.852
1642605466.970,24.414,34.180,-196.289,25.391,41.016
1642605466.974,3.418,43.457,-296.875,-5.371,-7.812
1642605466.978,7.324,41.016,-74.219,-10.254,20.996
1642605466.980,21.484,38.086,-7.812,11.230,16.113
1642605466.984,15.137,35.156,-168.945,10.254,-54.199
1642605466.988,12.695,34.180,-190.430,0.000,-45.410
1642605466.992,18.555,36.621,-115.234,6.348,-3.418
1642605466.996,26.855,38.086,-86.914,19.043,14.648
1642605467.000,31.250,35.156,-160.156,25.879,39.551
1642605467.004,25.879,36.133,-188.477,24.414,54.688
1642605467.007,23.438,36.133,-170.410,16.113,12.207
1642605467.011,29.785,34.180,-168.945,21.973,0.488
1642605467.015,24.414,30.273,-370.117,30.273,-24.414
1642605467.019,17.090,28.809,-412.109,21.973,-40.039
1642605467.023,16.113,38.574,12.695,19.531,49.805
1642605467.025,20.996,36.621,31.738,25.391,60.547
1642605467.029,28.320,31.738,-93.750,28.809,6.348
1642605467.033,22.461,32.715,-6.836,27.344,-3.418
1642605467.037,18.555,32.715,80.566,23.438,37.598
1642605467.041,29.297,31.738,-31.250,26.367,6.836
1642605467.045,41.992,30.762,-196.777,32.715,-4.395
1642605467.049,34.180,34.180,-159.180,34.180,24.414
1642605467.052,21.973,34.668,-73.730,27.832,12.207
1642605467.056,18.555,29.785,-256.836,19.043,-30.273
1642605467.060,21.484,32.715,-454.590,20.508,-45.898
1642605467.064,17.090,38.086,-240.723,25.879,-3.906
1642605467.068,9.766,36.621,-171.387,21.973,-4.883
1642605467.070,15.137,37.598,-250.977,11.719,-18.066
1642605467.074,17.578,41.016,-178.711,13.672,-14.648
1642605467.078,19.043,42.969,3.418,21.973,-9.277
1642605467.082,17.090,40.039,-52.734,13.672,-22.949
1642605467.086,18.066,34.668,-177.734,8.301,-36.621
1642605467.090,29.297,36.621,-268.066,19.531,-46.387
1642605467.094,36.133,38.086,-235.352,32.227,19.531
1642605467.097,32.227,37.109,-143.066,31.250,49.805
1642605467.101,24.414,34.180,-422.852,22.461,-8.301
1642605467.105,29.297,32.715,-406.738,22.461,2.441
1642605467.109,36.133,34.180,-42.969,31.250,49.316
1642605467.113,32.715,34.668,-109.375,35.156,17.578
1642605467.115,31.738,37.598,-179.199,31.250,-7.812
1642605467.119,40.527,37.598,-221.191,35.156,-30.273
1642605467.123,37.598,36.621,-160.645,35.156,14.648
1642605467.127,14.160,32.227,-220.215,19.531,19.043
1642605467.131,3.418,30.273,-413.574,10.254,-17.090
1642605467.135,3.906,32.227,-366.699,0.000,14.648
1642605467.139,4.883,35.645,-227.051,-0.488,49.316
1642605467.142,9.766,33.691,-313.477,16.113,55.176
1642605467.146,0.000,31.738,-509.766,12.207,29.297
1642605467.150,-7.324,33.691,-243.652,-1.953,42.480
1642605467.154,3.906,33.691,-43.945,3.418,74.219
1642605467.158,13.672,33.203,-146.484,18.066,53.711
1642605467.160,10.254,33.203,-240.723,13.184,0.000
1642605467.164,4.883,32.715,-144.531,1.953,-11.230
1642605467.168,8.789,30.762,-110.840,7.812,-3.906
1642605467.172,16.113,23.438,-175.293,12.695,39.551
1642605467.176,15.625,24.902,-249.023,17.578,55.664
1642605467.180,14.160,30.762,-289.551,20.996,56.152
1642605467.184,20.020,28.809,-354.980,17.578,41.016
1642605467.187,32.227,27.344,-595.215,30.273,-7.812
1642605467.191,34.668,30.762,-554.199,34.668,-11.230
1642605467.195,27.344,35.156,-133.789,23.926,27.344
1642605467.199,19.043,38.086,-113.281,21.973,43.945
1642605467.203,19.043,38.086,-219.238,24.902,18.555
1642605467.204,24.902,36.133,-148.926,30.273,13.672
1642605467.208,13.184,33.203,-56.641,33.203,34.180
1642605467.212,3.906,30.273,-180.664,23.926,29.785
1642605467.216,13.672,32.715,-234.863,22.461,20.020
1642605467.220,19.043,30.762,-152.832,29.297,22.461
1642605467.224,11.230,31.738,-188.477,31.250,75.195
1642605467.228,4.395,37.598,-335.449,24.414,78.613
1642605467.231,9.277,35.645,-644.043,18.555,1.465
1642605467.235,15.137,33.691,-410.645,26.855,21.484
1642605467.239,17.090,31.250,-68.359,35.156,37.109
1642605467.243,14.160,28.809,-198.730,29.785,21.484
1642605467.247,14.648,30.762,-328.125,25.879,-6.836
1642605467.249,24.902,31.250,-250.488,33.203,-28.809
1642605467.253,22.461,28.320,-150.391,40.039,28.809
1642605467.257,2.930,29.297,-154.297,31.738,60.059
1642605467.261,0.000,30.762,-142.090,17.090,25.391
1642605467.265,14.648,27.832,-90.820,19.043,21.484
1642605467.269,17.578,29.297,-133.301,29.785,65.430
1642605467.273,15.625,31.738,-426.270,32.715,34.668
1642605467.276,9.766,31.738,-427.734,21.484,29.297
1642605467.280,10.742,30.762,-110.352,20.508,38.086
1642605467.284,20.020,29.297,-173.828,30.762,23.438
1642605467.288,17.090,29.785,-279.297,30.273,3.418
1642605467.292,5.371,34.180,-115.234,17.578,9.766
1642605467.309,9.277,37.109,-12.207,10.742,71.777
1642605467.313,20.020,36.133,-169.922,20.996,57.129
1642605467.317,17.578,38.086,-194.336,30.762,72.266
1642605467.321,6.836,42.969,-18.066,25.391,97.656
1642605467.325,4.883,37.598,-36.621,10.742,73.730
1642605467.329,8.301,24.902,-301.758,15.137,33.691
1642605467.333,8.301,24.414,-358.887,25.879,22.949
1642605467.336,2.441,27.344,-143.066,19.531,67.871
1642605467.340,8.789,23.438,-122.070,18.555,64.941
1642605467.344,25.391,33.691,-252.441,30.273,32.227
1642605467.348,21.484,39.551,-210.449,29.785,39.062
1642605467.352,4.883,36.621,-55.176,17.578,62.988
1642605467.354,-4.395,36.621,-196.289,7.812,33.691
1642605467.358,-5.371,30.273,-517.578,6.348,-3.418
1642605467.362,4.395,27.344,-583.984,20.508,-25.879
1642605467.366,5.371,36.133,-187.500,26.367,35.645
1642605467.370,2.930,38.086,-67.871,15.625,60.547
1642605467.374,5.859,33.691,-265.625,13.184,56.152
1642605467.378,18.555,34.180,-298.828,22.949,90.820
1642605467.381,23.438,33.691,-140.625,27.832,78.613
1642605467.385,12.207,34.668,-113.281,27.344,65.430
1642605467.389,13.184,32.227,-502.930,20.020,26.367
1642605467.393,21.484,30.762,-460.449,21.484,10.742
1642605467.397,24.414,35.645,-35.645,31.250,66.406
1642605467.399,14.160,38.574,-153.809,24.902,62.988
1642605467.403,5.859,37.109,-260.742,18.066,15.137
1642605467.407,8.301,34.668,-145.020,18.066,31.738
1642605467.411,13.184,36.133,-140.137,25.879,44.434
1642605467.415,9.766,37.598,-242.188,32.227,15.625
1642605467.419,3.418,38.574,-428.223,21.484,-12.207
1642605467.423,5.859,36.133,-336.914,18.066,8.789
1642605467.426,17.090,32.227,-57.129,28.320,77.637
1642605467.430,19.043,30.273,-194.336,27.832,77.637
1642605467.434,8.789,31.250,-337.402,20.508,57.617
1642605467.438,10.254,31.738,-158.203,13.672,71.289
1642605467.442,25.879,33.203,-31.250,22.949,43.945
1642605467.445,28.320,38.574,-305.176,30.762,-20.020
1642605467.449,21.484,40.039,-455.078,22.949,-13.672
1642605467.453,20.020,37.598,-167.969,20.020,45.410
1642605467.457,31.250,35.156,-133.789,30.762,40.039
1642605467.461,43.457,34.180,-173.340,41.504,32.715
1642605467.465,32.227,32.715,-244.629,32.227,60.547
1642605467.469,20.508,32.227,-338.867,22.461,28.320
1642605467.472,26.855,34.668,-329.102,26.855,14.160
1642605467.476,34.180,38.086,-516.113,35.156,19.531
1642605467.480,34.180,38.574,-546.875,34.180,6.348
1642605467.484,21.973,36.133,-168.457,23.438,27.832
1642605467.488,22.461,33.691,-135.254,23.926,57.617
1642605467.490,31.250,31.738,-190.430,36.621,40.527
1642605467.494,22.949,25.391,-82.031,40.039,16.113
1642605467.498,13.672,26.367,-30.762,33.691,60.547
1642605467.502,9.766,31.250,-121.094,26.855,57.617
1642605467.506,20.508,30.762,-184.082,27.344,18.066
1642605467.510,24.414,30.762,-241.211,31.738,38.574
1642605467.514,12.695,31.250,-192.871,22.949,38.086
1642605467.517,7.812,29.297,-258.301,10.742,0.977
1642605467.521,20.996,26.855,-517.578,13.184,8.789
1642605467.525,37.598,33.203,-253.418,25.391,47.852
1642605467.529,40.527,37.109,33.691,26.367,52.246
1642605467.533,30.273,37.109,-231.934,14.160,53.223
1642605467.535,26.367,36.621,-433.594,4.883,33.691
1642605467.539,32.227,36.621,-127.930,11.230,20.996
1642605467.543,27.832,36.621,-56.152,22.461,58.594
1642605467.547,15.137,34.180,-172.852,15.625,55.664
1642605467.551,15.137,32.227,-100.098,11.230,45.410
1642605467.555,23.926,32.715,-93.750,19.043,73.242
1642605467.559,25.391,31.250,-205.566,22.461,87.402
1642605467.562,16.113,29.785,-431.152,17.578,42.480
1642605467.566,17.090,33.203,-427.734,11.719,-28.809
1642605467.570,25.879,33.691,-109.863,23.438,-7.812
1642605467.574,20.996,30.273,-101.562,36.133,37.598
1642605467.578,10.254,27.832,-216.309,28.809,94.238
1642605467.581,4.883,31.250,-168.457,18.555,138.184
1642605467.585,10.254,36.133,-18.066,22.949,90.820
1642605467.589,17.578,35.156,-141.113,28.320,38.574
1642605467.593,13.672,29.297,-293.945,23.438,27.344
1642605467.597,6.348,27.832,-144.043,16.113,59.082
1642605467.601,10.742,31.250,-200.195,20.508,63.477
1642605467.605,17.578,28.809,-416.016,28.320,13.184
1642605467.608,17.578,25.879,-474.609,31.738,6.348
1642605467.612,6.836,30.273,-181.641,19.043,54.688
1642605467.616,9.277,30.762,-10.742,16.602,68.848
1642605467.620,20.508,33.203,-92.285,33.691,66.895
1642605467.624,19.531,36.621,-79.102,35.645,70.801
1642605467.624,12.207,35.645,-34.180,24.902,62.012
1642605467.628,13.184,38.086,-76.172,18.066,68.359
1642605467.632,21.973,39.551,-172.852,20.996,62.988
1642605467.636,26.367,40.039,-126.953,27.832,78.613
1642605467.640,22.949,41.016,-14.648,30.273,91.309
1642605467.644,19.043,41.016,-177.246,24.414,66.895
1642605467.648,24.902,37.109,-533.203,20.996,25.391
1642605467.651,33.203,35.156,-581.055,26.367,-41.992
1642605467.655,30.762,40.527,-160.645,32.715,-16.113
1642605467.659,17.578,38.574,-95.215,20.508,13.184
1642605467.663,24.414,37.109,-246.582,18.555,7.324
1642605467.667,31.738,41.504,-224.121,21.973,21.973
1642605467.684,22.461,35.645,-65.430,20.996,70.801
1642605467.688,6.348,31.250,-151.367,14.160,71.289
1642605467.692,8.301,26.855,-337.402,3.418,33.691
1642605467.696,20.996,23.926,-229.492,12.695,60.059
1642605467.700,14.160,22.949,-92.285,21.484,70.801
1642605467.704,0.488,19.531,-320.312,18.066,25.391
1642605467.708,-8.301,24.902,-587.891,13.184,-21.484
1642605467.711,-1.465,28.320,-381.836,15.137,7.812
1642605467.715,1.953,23.926,-76.172,20.508,106.445
1642605467.719,-17.090,22.461,-263.184,13.184,104.004
1642605467.723,-28.320,21.973,-463.379,-0.977,83.984
1642605467.727,-14.160,25.879,-158.691,0.977,84.473
1642605467.730,7.324,27.344,-68.359,16.602,44.434
1642605467.734,10.254,28.320,-71.777,23.926,87.891
1642605467.738,6.836,31.250,-88.379,15.625,114.746
1642605467.742,14.648,31.738,-64.453,16.113,96.191
1642605467.746,28.809,28.320,5.371,27.344,76.660
1642605467.750,33.203,24.902,-143.555,31.250,54.199
1642605467.754,24.414,26.367,-254.395,20.996,62.012
1642605467.757,26.367,31.250,-147.949,12.207,48.828
1642605467.761,44.434,36.133,-171.875,26.855,36.133
1642605467.765,42.969,31.738,-519.531,33.691,1.953
1642605467.769,27.344,29.297,-528.320,17.578,-11.719
1642605467.773,31.250,35.645,-121.094,10.254,26.367
1642605467.775,33.203,36.133,-103.027,13.184,36.133
1642605467.779,32.715,31.738,-163.574,19.531,35.645
1642605467.783,28.320,30.273,-85.449,18.555,38.574
1642605467.787,21.973,31.250,-97.656,9.277,53.223
1642605467.791,28.320,30.273,-208.984,10.254,40.527
1642605467.795,29.297,31.738,-324.707,16.602,19.531
1642605467.799,19.043,30.762,-327.148,16.602,39.062
1642605467.802,10.254,32.227,-174.316,12.207,21.973
1642605467.806,4.883,33.203,-328.125,5.859,-27.832
1642605467.810,13.672,28.809,-519.043,13.672,-4.883
1642605467.814,20.020,27.832,-292.969,28.320,20.996
1642605467.818,4.883,23.438,-244.141,16.113,5.859
1642605467.820,-0.488,19.043,-332.520,7.324,54.199
1642605467.824,10.254,20.508,-292.969,21.484,71.289
1642605467.828,10.742,20.020,-133.789,28.809,50.293
1642605467.832,3.418,20.020,-66.895,27.344,50.293
1642605467.836,-0.977,20.996,-129.395,19.531,14.648
1642605467.840,0.488,25.879,-293.457,20.996,-41.992
1642605467.844,8.789,27.344,-246.094,32.227,-58.105
1642605467.847,5.371,25.879,-104.492,27.832,-37.598
1642605467.851,-2.930,26.367,-380.859,17.578,10.254
1642605467.855,5.859,28.809,-380.859,18.066,20.508
1642605467.859,21.484,28.809,-13.672,25.879,7.324
1642605467.863,24.902,27.344,-67.871,30.273,0.488
1642605467.865,19.043,34.180,-121.094,18.555,18.555
1642605467.869,22.461,39.062,-153.320,11.230,19.043
1642605467.873,40.527,36.133,-181.152,27.832,2.441
1642605467.877,44.922,36.133,-152.832,35.645,56.152
1642605467.881,32.227,36.133,-316.895,20.508,44.434
1642605467.885,26.855,36.621,-284.668,6.348,20.508
1642605467.889,33.203,39.551,-189.941,10.742,47.852
1642605467.892,39.551,42.480,-276.367,26.367,66.406
1642605467.896,34.180,42.969,-458.496,19.043,6.836
1642605467.900,27.832,41.992,-238.281,9.766,0.977
1642605467.904,31.250,37.598,-41.016,16.113,34.668
1642605467.908,34.180,35.156,-132.324,20.508,20.996
1642605467.909,22.461,32.715,-187.012,20.020,3.418
1642605467.913,11.230,30.273,-80.078,13.672,21.484
1642605467.917,14.648,31.250,-21.484,19.043,52.734
1642605467.921,13.184,33.691,-73.730,28.809,53.223
1642605467.925,3.418,29.297,-175.781,29.785,7.324
1642605467.929,-2.441,31.250,-269.043,25.391,0.000
1642605467.933,0.000,39.551,-289.551,25.391,41.992
1642605467.936,9.277,33.203,-523.926,36.133,14.648
1642605467.940,14.648,29.785,-583.496,44.434,31.738
1642605467.944,7.324,31.738,-169.922,39.551,88.867
1642605467.948,3.906,31.250,-160.156,31.250,105.957
1642605467.952,13.184,29.785,-217.773,35.645,78.613
1642605467.954,13.184,30.762,-42.480,37.598,78.613
1642605467.958,8.301,35.645,-19.531,28.320,84.961
1642605467.962,4.883,34.180,-111.816,21.973,111.328
1642605467.966,7.324,32.227,-129.883,27.344,104.980
1642605467.970,17.090,29.785,-122.070,33.691,44.434
1642605467.974,18.555,33.691,-206.055,32.227,60.547
1642605467.978,19.043,35.645,-362.793,28.320,61.523
1642605467.981,23.438,29.785,-651.855,24.414,23.438
1642605467.985,33.203,33.691,-388.672,34.180,59.570
1642605467.989,36.621,37.598,-16.602,43.457,81.055
1642605467.993,26.855,29.297,-114.258,33.203,81.543
1642605467.997,23.926,31.250,-152.832,20.020,75.684
1642605468.000,22.461,37.109,-106.445,26.367,37.598
1642605468.004,24.414,37.109,-80.566,34.668,64.453
1642605468.008,21.484,38.086,-150.391,22.949,51.758
1642605468.012,14.160,37.109,-157.227,12.695,37.109
1642605468.016,24.414,32.715,-111.328,16.602,60.547
1642605468.020,27.344,29.785,-172.852,27.344,80.566
1642605468.024,13.672,31.250,-411.133,23.926,72.754
1642605468.027,10.254,30.762,-417.969,16.602,111.816
1642605468.031,11.230,31.250,-116.699,20.020,134.277
1642605468.035,16.113,28.320,-160.645,29.297,62.012
1642605468.039,19.531,25.391,-256.836,36.621,57.129
1642605468.043,13.184,27.344,-161.621,26.367,41.992
1642605468.059,18.066,30.273,-76.660,24.414,75.195
1642605468.063,28.320,32.715,-137.207,31.738,97.656
1642605468.067,21.484,29.297,-220.215,28.809,42.480
1642605468.071,13.672,27.832,-126.465,21.973,60.547
1642605468.075,16.113,27.344,-55.664,20.020,83.984
1642605468.079,19.043,22.949,-303.711,29.297,62.988
1642605468.083,21.973,25.391,-408.203,34.180,65.430
1642605468.086,17.578,27.344,-151.367,24.902,42.969
1642605468.090,16.602,27.832,-83.984,22.949,50.781
1642605468.094,25.879,33.203,-185.059,26.855,88.867
1642605468.098,34.180,31.738,-241.211,33.203,61.523
1642605468.102,27.832,32.715,-207.520,30.762,55.176
1642605468.105,15.137,33.203,-209.961,19.531,66.406
1642605468.109,20.996,30.762,-482.910,23.438,35.156
1642605468.113,33.691,30.762,-491.699,34.180,31.738
1642605468.117,32.715,29.785,-112.305,30.762,51.758
1642605468.121,19.043,33.203,-57.617,17.090,74.707
1642605468.125,21.484,34.668,-289.551,17.578,39.551
1642605468.129,36.621,36.621,-368.652,32.227,26.855
1642605468.132,34.668,38.574,-121.094,35.156,39.551
1642605468.136,19.043,37.109,-106.445,22.949,4.395
1642605468.140,14.160,34.180,-475.586,16.602,29.785
1642605468.144,20.508,32.227,-383.301,21.484,71.777
1642605468.148,26.855,32.227,35.645,32.227,74.707
1642605468.149,17.090,32.227,-76.172,24.414,32.227
1642605468.153,9.766,33.203,-175.781,14.160,22.461
1642605468.157,20.020,33.203,-67.871,18.066,24.902
1642605468.161,31.250,32.227,-117.676,27.344,-2.930
1642605468.165,30.762,32.715,-265.137,29.785,2.930
1642605468.169,12.695,31.738,-380.859,13.184,-9.277
1642605468.173,5.859,29.297,-332.031,0.977,21.484
1642605468.176,14.648,24.902,-110.352,9.277,77.148
1642605468.180,16.602,33.203,-221.191,19.531,27.832
1642605468.184,4.395,40.527,-496.582,14.160,12.207
1642605468.188,16.113,39.551,-222.168,15.625,22.461
1642605468.192,38.086,35.645,53.711,34.180,20.020
1642605468.194,25.391,30.273,97.656,33.691,5.859
1642605468.198,14.648,29.297,313.477,24.414,35.645
1642605468.202,16.113,30.762,639.648,25.391,74.707
1642605468.206,18.066,37.109,751.953,28.320,25.879
1642605468.210,18.555,35.156,700.195,42.969,-4.883
1642605468.214,3.418,38.086,568.848,34.180,35.645
1642605468.218,-14.648,48.828,579.590,0.000,70.312
1642605468.221,-17.090,50.293,767.090,-7.324,86.914
1642605468.225,-7.812,42.969,813.477,3.418,89.355
1642605468.229,-10.742,49.805,867.188,0.488,34.668
1642605468.233,-16.602,66.895,-987.305,-11.719,55.176
1642605468.237,-18.066,66.406,991.699,-23.926,71.777
1642605468.240,-26.855,65.430,985.840,-31.738,50.781
1642605468.244,-30.273,73.242,-1000.000,-33.203,56.641
1642605468.248,-32.227,83.008,-1000.000,-33.203,45.410
1642605468.252,-37.109,89.355,999.023,-42.969,49.805
1642605468.256,-34.668,99.121,999.023,-45.898,44.922
1642605468.260,-35.645,102.539,998.535,-39.062,42.480
1642605468.264,-50.781,98.633,-995.605,-47.852,61.523
1642605468.267,-50.293,97.656,970.215,-53.223,45.898
1642605468.271,-29.785,103.027,974.121,-48.340,21.973
1642605468.275,-48.340,114.258,-996.582,-52.246,15.625
1642605468.279,-71.777,113.770,-998.535,-65.918,29.785
1642605468.283,-67.383,117.188,991.211,-72.266,73.730
1642605468.286,-77.148,116.699,971.680,-85.938,50.293
1642605468.290,-83.008,121.582,997.070,-90.332,48.828
1642605468.294,-80.078,128.906,-998.535,-83.984,66.895
1642605468.298,-94.238,130.371,997.559,-100.586,55.664
1642605468.302,-102.539,133.301,-1000.000,-112.305,46.387
1642605468.306,-94.238,133.789,996.094,-101.074,40.039
1642605468.310,-94.727,137.207,-990.723,-95.215,60.547
1642605468.313,-111.328,135.254,957.031,-108.887,32.715
1642605468.317,-124.023,124.512,947.754,-127.930,74.219
1642605468.321,-126.465,115.234,-993.652,-129.395,118.164
1642605468.325,-119.629,117.188,998.535,-113.281,68.848
1642605468.329,-123.047,125.488,995.117,-118.164,60.059
1642605468.330,-125.000,125.488,987.305,-128.418,58.105
1642605468.334,-101.562,134.766,-998.047,-112.793,81.055
1642605468.338,-99.121,127.930,985.352,-106.934,97.656
1642605468.342,-105.469,112.793,979.492,-113.281,57.129
1642605468.346,-101.074,104.980,-997.559,-118.164,13.672
1642605468.350,-96.191,97.168,896.484,-111.328,20.996
1642605468.354,-85.449,106.934,820.312,-99.121,31.738
1642605468.357,-99.121,117.188,662.109,-113.281,21.484
1642605468.361,-107.422,116.211,775.879,-120.605,20.020
1642605468.365,-100.586,103.516,-976.074,-117.676,35.156
1642605468.369,-109.863,88.867,992.676,-123.047,35.156
1642605468.373,-104.004,89.844,995.605,-103.516,24.902
1642605468.374,-109.863,93.750,-999.512,-110.352,47.852
1642605468.378,-120.605,95.215,999.512,-137.207,71.777
1642605468.382,-114.746,90.820,999.512,-129.395,83.008
1642605468.386,-111.816,79.590,999.023,-119.629,80.566
1642605468.390,-119.141,74.707,987.305,-131.348,35.645
1642605468.394,-113.281,78.613,-964.844,-135.254,64.941
1642605468.398,-95.703,81.055,814.941,-130.371,86.914
1642605468.401,-77.637,78.613,712.891,-109.375,99.609
1642605468.405,-87.891,69.824,997.070,-105.469,133.301
1642605468.409,-104.492,70.312,-998.535,-122.070,74.707
1642605468.413,-93.750,66.895,868.164,-116.211,41.992
1642605468.417,-88.379,53.711,719.727,-111.328,78.125
1642605468.422,-93.750,50.293,584.473,-104.980,108.398
1642605468.426,-89.355,52.734,212.891,-90.820,89.355
1642605468.430,-74.219,53.711,-137.695,-94.238,54.688
1642605468.434,-56.152,53.223,-182.129,-87.402,36.621
1642605468.438,-52.734,48.828,-286.133,-76.172,58.594
1642605468.442,-65.430,42.480,-657.227,-82.520,62.012
1642605468.446,-62.500,38.574,-974.121,-84.473,27.832
1642605468.449,-45.410,38.086,-964.355,-73.242,29.785
1642605468.453,-36.133,39.062,-963.379,-56.641,29.297
1642605468.457,-41.016,39.551,-971.680,-59.570,21.973
1642605468.461,-41.504,32.715,-969.727,-67.383,27.344
1642605468.465,-23.926,26.855,-969.727,-52.246,79.102
1642605468.479,-11.719,20.508,-969.727,-27.832,116.211
1642605468.483,-24.414,9.277,-969.727,-27.832,28.809
1642605468.487,-29.785,-0.488,-969.727,-37.109,-19.531
1642605468.491,-9.277,-7.812,-969.727,-20.508,-12.695
1642605468.495,18.555,-7.812,-969.727,9.766,4.395
1642605468.499,16.113,-13.184,-969.238,15.137,0.488
1642605468.503,8.789,-27.344,-969.238,8.789,-31.250
1642605468.506,33.691,-25.879,-969.727,18.555,31.250
1642605468.510,61.523,-20.508,-969.727,45.410,112.793
1642605468.514,70.312,-20.996,-969.727,66.895,80.566
1642605468.518,64.941,-25.879,-969.727,62.012,65.430
1642605468.522,57.617,-35.156,-969.727,52.246,60.059
1642605468.524,73.242,-47.363,-969.727,69.824,23.438
1642605468.528,94.238,-50.781,-969.238,97.168,10.742
1642605468.532,92.773,-45.410,-969.727,104.980,28.809
1642605468.536,91.309,-45.410,-969.727,102.051,54.199
1642605468.540,105.957,-46.387,-969.238,112.793,27.832
1642605468.544,120.117,-47.363,-969.238,127.930,-37.598
1642605468.548,118.164,-41.992,-969.727,127.930,-33.691
1642605468.551,119.141,-37.109,-969.727,130.371,3.418
1642605468.555,129.883,-36.621,-969.727,135.254,-20.996
1642605468.559,145.508,-34.668,-969.238,144.043,-45.410
1642605468.563,154.785,-29.785,-969.727,158.203,26.855
1642605468.567,149.414,-29.297,-969.727,156.250,64.941
1642605468.569,155.273,-28.320,-969.727,149.414,15.625
1642605468.573,166.992,-25.879,-969.727,159.180,31.250
1642605468.577,171.387,-21.973,-969.238,171.875,62.012
1642605468.581,166.504,-24.414,-969.727,168.945,41.504
1642605468.585,159.668,-26.855,-969.727,162.109,-6.348
1642605468.589,161.621,-21.973,-969.238,166.992,-24.902
1642605468.593,165.527,-18.555,-969.238,171.875,16.113
1642605468.596,161.621,-20.020,-969.727,169.434,46.387
1642605468.600,152.344,-22.949,-969.727,161.621,29.297
1642605468.604,160.156,-20.996,-969.727,164.551,19.531
1642605468.608,165.039,-18.066,-969.727,175.781,56.641
1642605468.612,152.832,-18.066,-969.238,179.688,29.785
1642605468.615,144.531,-19.531,-969.238,168.945,-2.930
1642605468.619,140.625,-21.973,-969.727,159.180,4.395
1642605468.623,148.926,-16.602,-969.727,166.504,29.785
1642605468.627,146.484,-17.090,-969.727,168.457,42.480
1642605468.631,128.906,-20.996,-969.727,156.738,30.762
1642605468.635,123.047,-20.020,-969.727,149.902,88.379
1642605468.639,124.023,-20.508,-969.727,149.902,109.375
1642605468.642,114.746,-22.461,-969.727,149.414,50.293
1642605468.646,98.145,-24.414,-969.727,135.254,26.367
1642605468.650,97.656,-17.578,-969.727,125.488,34.668
1642605468.654,107.422,-13.672,-969.727,132.812,53.711
1642605468.658,108.887,-15.625,-969.727,138.184,66.406
1642605468.659,100.586,-15.137,-969.727,135.254,90.820
1642605468.663,95.703,-14.648,-969.238,126.465,83.984
1642605468.667,103.516,-10.254,-969.238,127.930,69.336
1642605468.671,113.770,-3.906,-969.727,135.254,28.320
1642605468.675,113.281,-4.395,-969.727,131.348,27.344
1642605468.679,104.004,-1.953,-970.215,124.512,33.203
1642605468.683,107.910,4.395,-965.332,124.023,58.105
1642605468.686,121.094,2.441,-968.262,137.695,49.805
1642605468.690,121.094,2.930,-963.867,138.672,-24.414
1642605468.694,109.863,8.789,-770.508,125.488,43.457
1642605468.698,102.539,10.254,-676.270,120.605,59.570
1642605468.702,105.469,9.277,-760.742,119.629,6.348
1642605468.704,100.098,8.789,-631.348,120.117,66.406
1642605468.708,82.520,13.672,-497.070,108.887,82.520
1642605468.712,75.684,13.672,-590.332,100.586,42.480
1642605468.716,79.590,9.766,-662.598,99.121,6.836
1642605468.720,82.031,15.137,-521.973,99.121,34.668
1642605468.724,76.172,18.066,-603.027,101.562,40.039
1642605468.728,66.895,15.137,-764.648,83.008,47.363
1642605468.731,60.547,13.184,-938.965,68.848,52.734
1642605468.735,62.500,15.625,-742.676,79.102,48.828
1642605468.739,58.594,19.043,-376.953,84.961,41.016
1642605468.743,48.828,20.020,-442.871,75.195,26.367
1642605468.747,50.781,22.461,-447.754,71.289,61.035
1642605468.749,58.105,26.367,-309.082,79.102,57.129
1642605468.753,48.828,23.438,-265.625,80.078,30.273
1642605468.757,33.203,20.996,-372.559,64.453,1.953
1642605468.761,33.203,22.949,-421.387,54.688,0.977
1642605468.765,42.969,20.020,-362.305,58.105,12.207
1642605468.769,45.410,22.461,-347.656,62.012,80.566
1642605468.773,36.133,25.879,-625.977,56.641,48.828
1642605468.776,32.715,23.438,-655.762,42.480,10.254
1642605468.780,42.969,23.926,-283.203,48.340,58.105
1642605468.784,43.945,19.043,-270.996,60.547,65.918
1642605468.788,35.156,17.090,-393.066,58.105,76.660
1642605468.792,26.855,20.996,-288.086,48.828,67.871
1642605468.796,33.203,20.508,-164.551,45.898,64.453
1642605468.800,36.621,18.555,-271.484,54.199,32.227
1642605468.804,33.691,19.043,-380.371,53.223,12.695
1642605468.808,30.273,19.043,-236.328,47.363,43.945
1642605468.812,31.738,17.578,-223.633,44.434,54.688
1642605468.816,39.551,22.461,-445.801,51.758,28.320
1642605468.820,48.340,25.391,-577.637,59.082,22.461
1642605468.823,34.668,21.973,-337.402,43.945,25.879
1642605468.827,23.438,18.066,-162.598,32.715,43.945
1642605468.831,36.621,26.855,-250.977,42.969,51.758
1642605468.835,46.387,34.180,-232.910,54.688,49.316
1642605468.839,52.734,31.738,-113.770,58.105,92.285
1642605468.855,51.758,27.832,-195.801,53.223,25.391
1642605468.859,31.738,24.414,-310.059,40.039,13.184
1642605468.863,24.902,24.902,-233.398,39.062,79.590
1642605468.867,33.691,22.461,-125.000,49.316,87.891
1642605468.871,25.879,23.438,-73.730,44.434,60.059
1642605468.875,23.926,22.461,-396.484,45.410,30.273
1642605468.879,34.668,23.438,-684.570,52.246,21.484
1642605468.882,34.668,30.273,-270.508,47.363,42.480
1642605468.886,22.949,28.320,-92.285,38.086,30.273
1642605468.890,16.602,25.391,-214.355,29.297,12.207
1642605468.894,27.344,25.879,-110.352,33.691,22.949
1642605468.898,35.645,24.414,-15.137,42.969,37.109
1642605468.900,23.438,23.926,-113.770,35.645,29.785
1642605468.904,19.043,23.438,-255.371,23.438,0.000
1642605468.908,29.297,22.949,-89.844,27.832,40.039
1642605468.912,29.785,20.996,-87.402,38.086,28.320
1642605468.916,25.391,22.949,-315.430,36.133,39.551
1642605468.920,21.973,24.414,-333.008,25.879,77.148
1642605468.924,22.461,19.043,-359.863,22.461,69.336
1642605468.927,28.320,20.020,-190.918,34.180,113.770
1642605468.931,28.320,24.902,-226.562,41.992,71.289
1642605468.935,18.066,23.438,-658.203,23.926,-17.578
1642605468.939,16.602,25.879,-400.391,12.695,20.020
1642605468.943,23.438,30.762,-126.465,28.809,55.664
1642605468.945,21.484,30.762,-153.809,29.297,60.547
1642605468.949,15.625,31.738,-103.516,20.996,64.941
1642605468.953,19.531,32.715,-85.938,21.973,-8.301
1642605468.957,34.180,32.227,-92.285,31.250,-33.691
1642605468.961,45.898,33.203,-138.184,44.434,-2.930
1642605468.965,40.039,31.250,-206.543,29.297,15.625
1642605468.969,40.039,32.227,-255.371,20.996,29.297
1642605468.972,50.781,37.109,-180.664,38.086,50.781
1642605468.976,46.875,36.621,-366.211,42.969,5.859
1642605468.980,26.855,34.668,-518.066,34.180,-3.418
1642605468.984,16.113,38.574,-116.211,25.391,60.547
1642605468.988,21.484,39.062,-26.855,34.668,42.969
1642605468.990,29.785,37.598,-126.465,46.387,30.273
1642605468.994,26.855,34.180,-18.555,42.480,33.203
1642605468.998,13.672,33.203,17.090,31.250,36.133
1642605469.002,8.789,38.574,-127.930,17.578,5.859
1642605469.006,17.090,36.621,-112.305,24.414,16.602
1642605469.010,14.648,34.180,-132.324,38.574,62.012
1642605469.014,4.883,37.598,-172.852,26.367,26.855
1642605469.017,3.906,39.551,-233.398,12.695,11.719
1642605469.021,10.742,38.574,-364.258,14.160,25.879
1642605469.025,19.531,35.156,-141.113,21.484,37.598
1642605469.029,11.719,36.133,60.059,18.555,62.500
1642605469.033,-2.441,41.016,-80.078,4.883,73.242
1642605469.035,4.883,42.969,-132.324,9.766,64.941
1642605469.039,9.277,40.527,96.191,16.113,92.285
1642605469.043,-3.906,38.574,142.578,10.742,137.207
1642605469.047,-19.531,37.109,70.801,0.488,70.801
1642605469.051,-16.113,38.574,109.375,-0.977,62.500
1642605469.055,-4.395,41.016,91.309,15.625,93.750
1642605469.059,-14.648,39.062,50.781,11.719,53.223
1642605469.062,-23.438,40.527,-187.500,-3.418,17.578
1642605469.066,-20.996,42.969,-153.809,-2.441,0.488
1642605469.070,-18.555,44.434,347.656,0.000,52.246
1642605469.074,-13.672,56.152,497.070,5.859,67.383
1642605469.078,-29.297,53.711,473.633,-6.348,38.086
1642605469.081,-40.039,46.875,568.359,-23.438,39.551
1642605469.085,-16.113,66.406,854.004,-7.324,61.523
1642605469.089,-24.902,67.383,916.504,-16.602,50.293
1642605469.093,-51.758,73.730,860.840,-43.945,58.594
1642605469.097,-44.922,102.539,997.559,-49.316,82.520
1642605469.101,-39.062,106.934,-993.652,-48.340,41.016
1642605469.105,-60.059,89.355,992.188,-63.477,53.223
1642605469.108,-71.777,94.238,992.676,-75.684,86.426
1642605469.112,-66.895,119.141,998.047,-83.008,58.105
1642605469.116,-57.617,135.742,-1000.000,-91.797,63.477
1642605469.120,-69.336,137.695,999.023,-101.562,68.848
1642605469.124,-87.402,142.578,999.512,-110.352,45.898
1642605469.124,-98.633,150.391,999.512,-131.836,76.660
1642605469.128,-108.398,152.344,999.512,-148.926,65.918
1642605469.132,-107.422,148.438,999.512,-150.391,35.645
1642605469.136,-109.375,146.484,999.512,-144.531,62.988
1642605469.140,-126.953,146.973,999.512,-153.320,63.965
1642605469.144,-138.672,144.531,999.512,-164.551,17.578
1642605469.148,-143.066,135.254,999.512,-165.527,-17.578
1642605469.151,-144.043,124.023,999.512,-162.598,-23.926
1642605469.155,-144.043,124.023,999.512,-158.203,24.414
1642605469.159,-152.832,131.836,999.512,-165.039,32.715
1642605469.163,-146.484,125.488,-1000.000,-161.621,-0.488
1642605469.167,-134.277,119.629,995.605,-145.020,32.227
1642605469.184,-136.230,118.652,-991.211,-144.043,65.918
1642605469.188,-136.230,120.117,970.215,-149.902,22.949
1642605469.192,-121.094,118.652,952.637,-145.508,-8.789
1642605469.196,-100.098,109.863,970.215,-134.766,-25.879
1642605469.200,-91.797,101.074,946.289,-123.535,-23.926
1642605469.204,-96.191,90.820,734.863,-123.047,0.488
1642605469.208,-86.426,90.820,439.453,-124.023,-13.184
1642605469.211,-62.012,99.121,662.598,-116.699,-27.832
1642605469.215,-59.082,98.633,847.168,-110.840,-4.395
1642605469.219,-68.848,95.703,530.273,-109.375,-15.625
1642605469.223,-77.148,89.355,422.852,-119.141,9.277
1642605469.227,-79.590,80.078,595.703,-114.746,39.551
1642605469.230,-77.637,76.660,582.031,-99.121,-14.648
1642605469.234,-78.613,74.219,396.973,-96.191,-27.344
1642605469.238,-75.684,73.730,304.688,-99.609,20.996
1642605469.242,-71.777,74.219,305.664,-96.680,43.945
1642605469.246,-56.152,74.707,214.355,-77.148,33.203
1642605469.250,-54.688,74.219,-4.395,-73.730,59.082
1642605469.254,-65.430,71.289,-246.094,-84.473,22.461
1642605469.257,-55.664,71.289,-250.488,-82.031,-48.340
1642605469.261,-45.410,69.824,-264.160,-66.895,-5.371
1642605469.265,-41.016,61.523,-691.406,-45.410,-0.977
1642605469.269,-43.945,59.082,-880.371,-49.805,-8.301
1642605469.273,-37.109,62.012,-607.422,-51.758,38.574
1642605469.274,-25.391,50.293,-653.320,-37.109,65.430
1642605469.278,-33.691,38.574,-755.859,-32.227,79.102
1642605469.282,-40.039,33.691,-802.734,-23.438,42.480
1642605469.286,-32.715,24.902,-935.547,-15.625,54.688
1642605469.290,-14.160,18.066,-975.586,-4.883,36.621
1642605469.294,5.859,15.625,-964.844,15.137,17.090
1642605469.298,15.625,8.301,-970.215,28.809,12.695
1642605469.301,22.949,2.441,-969.727,32.227,23.926
1642605469.305,36.133,-4.883,-969.238,41.016,28.320
1642605469.309,47.363,-15.625,-969.727,58.594,-0.977
1642605469.313,54.199,-18.066,-969.727,63.477,49.805
1642605469.317,60.059,-18.066,-969.238,63.477,73.730
1642605469.319,67.871,-20.020,-969.238,69.336,35.156
1642605469.323,72.754,-23.438,-969.727,81.055,34.668
1642605469.327,76.660,-26.367,-969.238,100.098,41.992
1642605469.331,79.102,-26.855,-969.238,104.492,48.828
1642605469.335,83.984,-26.855,-969.727,107.910,53.223
1642605469.339,101.074,-28.809,-969.238,118.652,20.996
1642605469.343,110.840,-31.738,-969.238,129.395,-22.461
1642605469.346,101.074,-28.320,-969.238,131.836,-0.977
1642605469.350,97.656,-29.297,-969.727,121.094,-12.695
1642605469.354,108.398,-30.762,-969.238,126.953,-44.434
1642605469.358,118.164,-28.809,-969.238,145.020,16.602
1642605469.362,118.652,-32.227,-969.727,149.414,18.066
1642605469.380,118.652,-26.855,-969.727,143.555,11.719
1642605469.384,122.070,-20.996,-969.727,139.160,5.371
1642605469.388,125.977,-20.508,-969.727,148.438,23.438
1642605469.392,127.441,-21.973,-969.727,153.809,22.461
1642605469.396,120.117,-20.508,-969.238,143.066,3.906
1642605469.400,117.188,-18.066,-969.238,139.160,-21.973
1642605469.404,130.371,-15.625,-969.238,149.902,-34.180
1642605469.407,128.906,-14.160,-969.238,157.227,-10.742
1642605469.411,118.652,-13.672,-969.238,152.832,-2.930
1642605469.415,119.141,-12.695,-970.215,143.066,30.273
1642605469.419,131.348,-11.230,-967.773,151.855,33.203
1642605469.423,138.184,-10.742,-969.238,165.039,27.344
1642605469.409,131.348,-13.672,-966.797,158.203,41.016
1642605469.413,127.441,-14.160,-895.996,142.090,114.746
1642605469.417,133.301,-12.695,-844.727,143.555,106.934
1642605469.421,139.648,-12.207,-879.883,153.320,35.156
1642605469.425,128.906,-15.137,-837.402,148.926,86.426
1642605469.429,117.676,-12.695,-810.059,142.090,142.090
1642605469.433,117.676,-14.648,-870.605,145.020,113.281
1642605469.436,122.559,-20.508,-949.219,149.414,73.242
1642605469.440,122.559,-16.602,-810.547,150.879,65.918
1642605469.444,107.910,-12.695,-660.645,138.184,62.500
1642605469.448,96.680,-14.160,-632.324,126.465,68.848
1642605469.452,105.957,-14.160,-859.863,126.465,69.336
1642605469.454,108.398,-11.719,-869.141,124.023,50.781
1642605469.458,93.262,-9.277,-535.156,116.211,66.406
1642605469.462,89.355,-8.789,-602.539,102.539,90.820
1642605469.466,101.562,-8.301,-721.680,105.469,51.758
1642605469.470,103.027,-5.371,-506.836,116.211,39.551
1642605469.474,90.820,-5.859,-521.484,112.305,45.410
1642605469.478,81.543,-5.371,-694.336,101.562,55.664
1642605469.481,90.820,-7.324,-842.773,101.074,47.363
1642605469.485,98.633,-7.324,-640.137,109.375,30.762
1642605469.489,85.938,-0.488,-301.270,108.398,63.477
1642605469.493,76.172,2.930,-451.660,102.539,46.875
1642605469.497,78.125,3.906,-535.156,97.656,40.039
1642605469.515,82.520,3.906,-289.062,104.980,57.129
1642605469.519,81.543,4.395,-188.477,110.840,72.754
1642605469.523,71.289,9.277,-244.629,96.680,57.617
1642605469.527,62.988,12.695,-303.711,81.055,-7.812
1642605469.531,70.801,12.207,-260.742,83.496,3.418
1642605469.535,76.660,13.184,-308.594,91.309,23.926
1642605469.539,70.312,12.695,-468.262,80.566,1.465
1642605469.542,67.383,16.113,-369.141,70.312,8.301
1642605469.546,70.312,20.508,-208.008,73.242,-6.836
1642605469.550,74.707,20.020,-181.641,76.660,4.395
1642605469.554,64.941,18.555,-470.703,74.219,13.184
1642605469.558,53.711,18.066,-466.309,63.965,18.555
1642605469.560,56.152,14.648,-84.961,64.453,90.820
1642605469.564,73.242,10.742,-91.797,90.332,83.008
1642605469.568,82.031,20.996,-235.840,97.656,27.344
1642605469.572,43.945,29.785,-210.449,54.199,0.977
1642605469.576,28.320,31.250,-103.027,34.180,22.461
1642605469.580,48.828,28.809,-234.863,52.734,38.086
1642605469.584,42.480,25.879,-365.234,52.734,36.621
1642605469.587,26.367,25.879,-188.477,35.156,79.102
1642605469.591,25.391,25.879,-69.824,25.391,90.820
1642605469.595,36.621,24.414,-283.203,38.574,33.203
1642605469.599,39.551,22.461,-509.766,46.875,15.137
1642605469.603,33.203,25.879,-213.379,43.945,37.598
1642605469.604,27.832,28.809,-1.953,36.621,56.641
1642605469.608,29.297,26.855,-178.223,39.551,21.973
1642605469.612,32.227,25.391,-164.062,49.805,35.156
1642605469.616,26.855,27.832,-87.891,44.434,13.672
1642605469.620,18.555,24.414,-171.875,34.668,-15.625
1642605469.624,16.602,17.090,-299.316,28.320,28.320
1642605469.628,23.438,20.020,-298.828,34.180,39.062
1642605469.631,26.367,27.344,-91.309,36.133,85.938
1642605469.635,22.461,25.879,-33.203,24.902,119.141
1642605469.639,24.414,19.043,-428.711,22.461,71.289
1642605469.643,36.621,26.855,-474.609,32.715,44.434
1642605469.647,38.086,30.762,-50.781,40.039,51.270
1642605469.650,29.297,27.344,-86.426,35.156,48.340
1642605469.654,29.297,23.926,-261.230,29.785,8.789
1642605469.658,36.133,22.949,-168.457,34.180,20.508
1642605469.662,39.062,28.809,-63.965,37.598,62.500
1642605469.666,35.156,29.785,-217.285,40.527,36.133
1642605469.670,29.297,28.809,-410.645,32.227,14.648
1642605469.674,34.668,28.809,-345.215,29.297,35.645
1642605469.677,47.852,31.250,-83.496,42.969,54.688
1642605469.681,44.434,35.645,-150.391,45.898,41.992
1642605469.685,28.320,33.691,-481.934,31.250,15.137
1642605469.689,28.809,30.762,-261.230,30.273,27.344
1642605469.693,39.551,30.762,-7.324,47.852,48.828
1642605469.694,33.691,31.738,-70.312,44.434,38.086
1642605469.698,14.648,31.250,-98.145,22.461,20.508
1642605469.702,11.719,29.785,-62.012,20.508,35.645
1642605469.706,24.414,32.227,-64.941,29.297,12.207
1642605469.710,25.391,32.227,-76.172,35.156,21.973
1642605469.714,8.789,28.320,-201.660,23.926,35.156
1642605469.718,0.000,24.902,-333.496,8.301,22.949
1642605469.721,10.742,24.414,-331.055,17.090,26.855
1642605469.725,25.391,27.344,-453.125,28.809,32.227
1642605469.729,21.484,26.855,-448.242,16.602,22.949
1642605469.733,19.043,34.180,-43.945,5.859,38.574
1642605469.737,38.086,37.109,-40.039,14.160,38.086
1642605469.740,43.457,30.762,-120.117,25.391,24.902
1642605469.744,30.762,27.344,-9.766,20.020,18.066
1642605469.748,22.949,26.367,18.066,16.113,27.344
1642605469.752,21.484,28.809,-106.934,20.020,7.324
1642605469.756,33.203,32.715,-142.578,33.203,13.184
1642605469.760,42.480,31.738,-150.391,48.340,0.000
1642605469.764,33.203,28.809,-189.941,34.668,25.879
1642605469.767,26.855,32.715,-229.980,24.902,62.500
1642605469.771,34.180,38.574,-385.254,32.715,33.203
1642605469.775,37.109,39.062,-199.707,41.016,27.832
1642605469.779,28.809,32.227,-43.945,39.551,-8.301
1642605469.783,25.391,30.762,-193.848,37.598,14.160
1642605469.785,28.809,34.668,-175.781,38.086,41.016
1642605469.789,30.273,34.668,29.785,43.457,18.066
1642605469.793,22.461,36.621,86.426,40.527,29.297
1642605469.797,11.230,37.598,-23.438,25.391,58.594
1642605469.801,16.602,31.738,-49.316,25.879,64.453
1642605469.805,25.879,31.250,-113.281,35.156,57.617
1642605469.809,19.043,31.738,-140.625,24.902,54.199
1642605469.812,13.184,27.344,-349.121,16.113,-2.930
1642605469.816,16.113,28.320,-413.086,20.020,-28.809
1642605469.820,23.438,31.250,-27.344,27.344,49.805
1642605469.824,29.297,32.715,-8.789,37.109,73.242
1642605469.828,14.648,37.109,-127.441,25.879,16.602
1642605469.835,7.812,37.109,-135.254,16.602,6.836
1642605469.839,17.090,33.691,-20.996,27.832,45.898
1642605469.843,20.996,31.738,-72.754,36.133,29.297
1642605469.847,16.113,28.809,-261.719,27.832,3.418
1642605469.851,10.254,29.297,-116.211,19.043,48.828
1642605469.855,13.672,32.715,-87.402,21.484,63.965
1642605469.859,26.367,33.691,-288.574,37.109,69.824
1642605469.862,22.949,31.738,-382.812,40.527,58.594
1642605469.866,11.230,33.691,-165.039,27.832,61.035
1642605469.870,19.531,32.227,-38.086,23.438,95.215
1642605469.874,35.645,29.785,-132.812,33.203,61.035
1642605469.878,30.762,31.738,-115.723,39.062,56.641
1642605469.875,16.602,31.250,-78.613,25.391,65.430
1642605469.879,19.043,28.809,-112.305,17.578,45.898
1642605469.883,20.996,28.809,-202.637,24.414,18.555
1642605469.887,20.508,29.785,-273.438,26.855,49.805
1642605469.891,9.766,34.180,-131.836,19.043,98.633
1642605469.895,3.418,36.133,-166.504,10.254,87.402
1642605469.899,13.184,33.691,-483.887,14.160,63.477
1642605469.902,17.578,35.645,-486.816,21.484,40.039
1642605469.906,19.043,43.457,-38.574,21.973,81.543
1642605469.910,20.020,41.504,-10.742,16.602,75.195
1642605469.914,19.531,36.621,-114.746,10.742,39.062
1642605469.918,31.250,39.062,55.664,19.043,51.270
1642605469.934,29.297,39.551,148.438,24.902,33.691
1642605469.938,15.137,38.574,20.996,19.043,19.043
1642605469.942,23.438,41.992,-30.762,14.160,17.090
1642605469.946,33.203,43.457,112.793,17.578,62.012
1642605469.950,33.691,41.504,132.812,20.508,36.133
1642605469.954,24.902,37.598,-150.879,6.348,-36.621
1642605469.958,19.531,35.645,-416.504,2.930,-6.836
1642605469.961,29.785,38.086,-125.977,15.625,31.250
1642605469.965,28.809,39.062,135.742,19.043,28.320
1642605469.969,22.949,38.086,-71.289,14.160,0.000
1642605469.973,27.832,39.062,-146.973,9.766,-29.297
1642605469.977,29.785,41.992,69.824,16.602,-10.254
1642605469.979,38.086,38.086,89.844,29.785,15.625
1642605469.983,32.715,32.715,-27.344,23.926,14.160
1642605469.987,24.414,29.785,-46.875,13.184,12.207
1642605469.991,24.902,29.785,37.109,16.602,30.762
1642605469.995,27.832,31.738,2.441,25.879,26.855
1642605469.999,23.926,30.273,-139.648,26.855,-20.020
1642605470.003,13.672,31.250,-253.906,12.207,-17.578
1642605470.006,17.578,36.133,-87.891,11.719,42.480
1642605470.010,26.855,35.645,26.855,20.020,67.871
1642605470.014,19.043,30.762,-349.121,18.555,20.508
1642605470.018,5.859,32.715,-483.398,11.230,-19.043
1642605470.022,4.883,35.645,-85.938,1.465,20.020
1642605470.025,11.230,34.180,-29.785,5.371,39.062
1642605470.029,16.602,37.109,-161.621,16.113,22.461
1642605470.033,11.719,40.527,-35.156,19.043,-4.395
1642605470.037,6.836,41.016,34.180,17.090,-27.832
1642605470.041,13.184,39.062,-109.375,20.996,-30.762
1642605470.045,20.508,40.039,-189.453,32.227,-14.160
1642605470.049,14.160,41.016,-158.691,28.320,9.766
1642605470.052,8.301,38.574,-42.480,20.996,39.062
1642605470.056,13.672,35.645,-163.086,28.320,-1.953
1642605470.060,18.555,32.227,-396.973,39.551,-64.453
1642605470.064,18.066,34.180,-104.492,33.691,-13.672
1642605470.068,8.301,33.691,-49.805,21.484,-4.883
1642605470.070,11.719,29.785,-273.438,20.508,-38.086
1642605470.074,26.367,34.668,-188.965,30.762,7.812
1642605470.078,27.832,38.574,11.230,40.527,31.250
1642605470.082,11.230,35.156,-12.695,26.855,6.348
1642605470.086,7.812,32.715,-154.785,12.695,7.324
1642605470.090,20.508,35.156,-265.137,22.461,7.324
1642605470.094,26.855,37.109,-279.785,34.180,12.207
1642605470.097,25.391,37.109,-126.465,35.156,44.922
1642605470.101,12.207,36.621,-347.168,23.438,45.898
1642605470.105,15.137,33.691,-407.715,19.531,35.156
1642605470.109,24.414,35.645,-10.742,32.715,66.895
1642605470.113,8.301,37.598,14.160,28.320,98.145
1642605470.116,-1.953,33.203,-97.168,16.602,64.941
1642605470.120,4.883,33.203,-110.352,11.719,43.457
1642605470.124,10.254,37.109,-102.051,20.020,61.523
1642605470.128,12.695,36.621,-148.438,28.809,32.715
1642605470.132,7.812,36.621,-242.188,15.625,1.465
1642605470.136,12.695,37.598,-279.297,12.207,1.953
1642605470.140,25.391,40.039,-218.262,21.484,-12.207
1642605470.143,23.438,37.598,-262.207,30.762,-16.602
1642605470.147,13.184,26.855,-491.699,26.855,-47.852
1642605470.151,9.766,30.762,-259.277,19.531,-24.902
1642605470.155,15.137,37.109,-39.062,28.809,52.246
1642605470.159,14.648,33.203,-117.188,35.645,22.949
1642605470.160,7.812,32.715,-117.676,33.203,30.273
1642605470.164,1.953,30.762,-78.613,21.484,52.734
1642605470.168,-0.977,23.438,-101.074,16.113,4.883
1642605470.172,0.977,20.508,-123.047,22.461,42.480
1642605470.176,-3.906,25.391,-166.016,24.414,64.453
1642605470.180,-11.719,30.273,-307.617,13.672,20.996
1642605470.184,-10.742,32.715,-299.316,9.766,14.160
1642605470.187,8.789,34.668,-432.617,26.855,28.320
1642605470.191,17.578,40.039,-498.535,35.156,40.039
1642605470.195,10.254,46.875,-125.977,23.438,90.820
1642605470.199,6.836,44.922,4.883,11.719,77.148
1642605470.203,4.395,40.039,77.637,12.207,68.848
1642605470.205,2.441,43.457,393.066,15.137,80.566
1642605470.209,-8.301,48.828,673.828,8.789,36.621
1642605470.213,-19.531,48.340,740.234,-4.883,83.496
1642605470.217,-8.789,55.176,833.984,-7.812,82.031
1642605470.221,-1.465,67.871,-995.117,1.465,34.668
1642605470.225,-15.625,66.406,965.332,-1.465,57.129
1642605470.229,-30.273,72.754,786.133,-24.414,63.477
1642605470.232,-40.039,76.660,622.559,-44.434,7.324
1642605470.236,-30.273,77.637,862.305,-35.645,-8.301
1642605470.240,-38.086,90.820,-948.242,-36.621,4.883
1642605470.244,-68.359,97.656,891.113,-69.824,-1.953
1642605470.248,-69.824,94.238,764.648,-83.008,-26.855
1642605470.250,-60.059,98.145,904.297,-67.383,-3.906
1642605470.254,-72.754,96.680,-994.141,-69.336,70.312
1642605470.258,-87.402,91.797,778.809,-84.473,85.938
1642605470.262,-92.285,95.703,666.504,-96.191,77.637
1642605470.266,-87.891,99.609,791.992,-91.309,91.797
1642605470.270,-85.449,102.539,620.605,-83.984,58.105
1642605470.274,-86.426,109.375,194.336,-86.914,6.836
1642605470.277,-87.402,116.211,208.984,-100.586,49.316
1642605470.281,-81.543,115.234,613.281,-98.145,100.586
1642605470.285,-80.566,109.375,648.438,-87.891,47.363
1642605470.289,-86.426,107.422,458.008,-92.285,35.645
1642605470.293,-93.750,105.957,451.660,-98.633,78.125
1642605470.295,-98.633,100.098,641.113,-99.121,71.777
1642605470.299,-88.867,98.145,516.113,-82.520,16.602
1642605470.303,-86.914,102.539,369.629,-77.637,8.301
1642605470.307,-97.168,104.004,512.207,-91.797,14.160
1642605470.311,-90.332,104.492,581.055,-89.355,52.246
1642605470.315,-83.496,101.562,350.586,-79.102,73.730
1642605470.319,-75.195,99.609,16.113,-74.219,23.438
1642605470.322,-72.266,95.215,124.023,-83.008,30.762
1642605470.326,-78.125,85.449,181.641,-87.891,56.641
1642605470.330,-69.824,80.078,-50.293,-67.383,92.773
1642605470.334,-62.500,78.125,-168.945,-54.688,82.031
1642605470.338,-65.430,75.195,-197.754,-60.547,74.707
1642605470.356,-58.594,66.895,-392.090,-66.406,40.527
1642605470.360,-40.039,55.664,-687.500,-56.152,-1.465
1642605470.364,-28.809,50.781,-811.523,-33.203,-8.789
1642605470.368,-29.297,50.781,-726.074,-26.367,6.836
1642605470.372,-26.855,45.410,-750.488,-22.949,53.711
1642605470.376,-16.113,38.574,-902.832,-14.648,63.965
1642605470.380,1.465,31.738,-986.816,1.465,31.250
1642605470.383,8.301,24.902,-938.965,14.648,22.461
1642605470.387,1.953,20.508,-925.293,11.719,47.363
1642605470.391,10.742,14.648,-966.797,15.625,11.230
1642605470.395,27.832,13.672,-972.168,29.297,5.859
1642605470.399,39.551,17.090,-965.820,41.504,42.480
1642605470.415,37.598,11.719,-966.797,40.527,35.645
1642605470.419,33.691,7.812,-969.238,31.250,-9.277
1642605470.423,52.246,11.230,-969.238,45.410,-17.578
1642605470.427,66.895,11.719,-969.238,62.012,20.508
1642605470.431,62.988,7.324,-970.215,60.547,29.785
1642605470.435,62.012,6.836,-964.355,56.152,6.348
1642605470.439,68.848,7.324,-982.910,61.523,43.457
1642605470.442,77.637,4.395,-918.945,75.684,58.594
1642605470.446,77.637,4.883,-880.371,72.266,-8.301
1642605470.450,68.359,2.441,-976.562,58.594,-72.266
1642605470.454,70.312,2.441,-951.172,64.453,-47.852
1642605470.458,83.984,4.395,-881.836,74.707,-16.602
1642605470.444,89.355,5.371,-893.555,76.172,-14.160
1642605470.448,80.078,7.324,-821.777,73.242,0.488
1642605470.452,78.613,6.836,-727.539,73.730,21.973
1642605470.456,87.891,4.395,-680.664,86.914,32.715
1642605470.460,86.426,7.324,-686.523,90.332,24.414
1642605470.464,77.148,7.324,-793.457,83.008,9.277
1642605470.468,71.777,6.348,-845.703,72.266,20.996
1642605470.471,82.520,6.348,-761.719,77.637,7.812
1642605470.475,88.867,3.418,-720.215,92.285,-43.945
1642605470.479,76.172,2.441,-672.363,90.332,-50.293
1642605470.483,69.824,3.418,-606.934,82.520,-38.574
1642605470.487,79.102,6.836,-590.820,84.961,-11.230
1642605470.489,82.520,6.836,-843.750,94.727,-20.996
1642605470.493,80.566,7.324,-879.395,92.773,-47.363
1642605470.497,78.613,11.719,-549.316,84.473,-8.301
1642605470.501,82.520,8.301,-567.871,81.543,-6.836
1642605470.505,89.844,6.836,-565.430,88.379,20.996
1642605470.509,86.426,4.883,-541.992,97.168,9.766
1642605470.513,77.148,2.441,-567.383,88.867,-34.180
1642605470.516,76.172,2.441,-632.324,86.426,-32.227
1642605470.520,87.402,3.906,-766.602,93.262,-47.852
1642605470.524,87.402,6.348,-601.562,97.656,-59.570
1642605470.528,71.777,3.906,-404.297,90.820,-29.785
1642605470.532,64.453,4.883,-483.887,78.125,-43.945
1642605470.535,76.172,8.789,-607.910,79.102,-70.801
1642605470.539,86.914,11.719,-308.594,85.938,-41.504
1642605470.543,81.055,14.648,-187.012,82.520,-32.227
1642605470.547,75.195,14.160,-271.973,73.730,-41.992
1642605470.551,77.637,13.672,-273.926,70.312,-44.922
1642605470.555,77.637,13.184,-371.582,71.289,-38.574
1642605470.559,67.871,13.184,-299.805,66.406,19.531
1642605470.562,53.711,13.672,-468.262,61.035,9.277
1642605470.566,54.199,15.625,-588.867,61.035,15.625
1642605470.570,64.941,20.020,-207.520,67.383,50.781
1642605470.574,62.988,17.578,-188.965,75.684,6.348
1642605470.578,51.758,17.090,-292.969,60.547,-25.391
1642605470.580,45.898,20.996,-283.691,50.293,-11.719
1642605470.584,54.199,23.438,-199.707,60.059,20.508
1642605470.588,59.082,23.438,-212.891,68.848,13.184
1642605470.592,50.781,22.461,-312.500,67.871,-4.883
1642605470.596,43.945,22.949,-228.516,50.293,31.738
1642605470.600,45.898,24.414,-248.047,50.781,66.406
1642605470.604,48.340,23.438,-391.602,68.848,63.965
1642605470.607,42.480,25.391,-516.113,63.965,-11.719
1642605470.611,34.180,25.391,-327.637,45.410,-5.859
1642605470.615,35.156,22.949,-100.098,42.480,20.996
1642605470.619,38.574,20.996,-145.508,52.734,15.625
1642605470.623,34.180,24.902,-162.598,59.082,65.430
1642605470.624,27.832,33.203,-106.934,49.316,70.312
1642605470.628,29.297,34.180,-95.703,44.434,41.016
1642605470.632,28.809,30.273,-98.633,43.945,31.738
1642605470.636,22.461,24.902,-205.566,42.480,28.809
1642605470.640,16.113,26.367,-165.527,41.504,40.039
1642605470.644,12.207,24.414,-189.941,32.227,30.273
1642605470.648,26.367,21.973,-476.074,45.410,6.836
1642605470.651,40.039,26.855,-529.785,65.918,41.992
1642605470.655,25.391,32.715,-156.738,47.363,93.750
1642605470.659,7.324,29.785,-58.594,25.391,77.148
