timestamps,TP9,AF7,AF8,TP10,Right AUX
1641936866.175,59.082,46.875,172.363,65.430,45.898
1641936866.179,35.645,29.297,-184.570,70.801,5.371
1641936866.183,-3.906,48.340,-227.539,51.270,11.230
1641936866.187,-9.766,57.129,135.254,33.203,44.434
1641936866.191,13.184,37.109,45.410,51.270,58.594
1641936866.195,9.277,43.945,-123.535,56.641,41.016
1641936866.199,-26.367,60.547,-76.172,30.762,62.012
1641936866.202,-30.273,64.453,53.223,-0.977,83.496
1641936866.206,2.441,45.898,-12.207,7.812,72.754
1641936866.210,20.020,27.344,-355.957,35.156,25.879
1641936866.214,13.672,49.805,-186.035,23.926,13.672
1641936866.218,2.441,57.617,229.492,-5.859,62.988
1641936866.218,2.441,57.617,229.492,-5.859,62.988
1641936866.220,17.090,43.457,116.699,-20.020,51.270
1641936866.224,51.758,48.828,50.293,9.766,32.227
1641936866.228,51.758,55.664,149.902,28.320,59.082
1641936866.232,27.344,52.734,140.137,17.090,66.895
1641936866.236,36.133,41.992,70.801,17.090,64.453
1641936866.240,65.918,35.156,-31.738,25.391,79.102
1641936866.244,68.359,42.480,-14.648,37.598,85.938
1641936866.247,44.922,45.898,161.621,30.762,74.219
1641936866.251,21.973,26.855,-87.402,18.066,39.062
1641936866.255,38.574,29.785,-204.102,30.762,12.207
1641936866.259,58.105,45.898,158.691,46.387,39.551
1641936866.263,26.855,35.156,75.195,50.293,39.551
1641936866.265,2.441,40.039,-53.223,39.062,34.180
1641936866.269,22.461,62.500,89.355,33.203,103.027
1641936866.273,44.434,61.035,218.262,58.594,126.953
1641936866.277,32.227,48.828,165.039,61.035,105.957
1641936866.281,9.766,47.363,93.750,38.574,52.734
1641936866.285,14.648,41.016,15.625,37.598,17.090
1641936866.289,37.598,41.016,33.203,43.945,9.766
1641936866.292,39.062,34.668,95.703,55.176,41.992
1641936866.296,20.508,32.227,-169.922,30.273,45.410
1641936866.300,40.039,57.617,-20.020,10.254,64.453
1641936866.304,73.730,48.340,222.168,32.227,131.348
1641936866.308,83.008,41.016,56.641,41.504,78.125
1641936866.310,67.383,49.805,41.992,31.738,52.246
1641936866.314,54.688,43.457,28.320,13.184,58.594
1641936866.318,67.871,45.898,3.418,6.348,35.156
1641936866.322,75.195,44.922,-21.973,45.898,50.781
1641936866.326,48.340,49.316,-51.758,63.477,71.289
1641936866.330,25.879,55.664,14.160,22.461,65.430
1641936866.334,37.598,49.805,8.789,3.418,74.219
1641936866.337,50.781,35.156,-172.363,25.879,50.293
1641936866.341,34.180,46.387,-183.594,32.715,27.344
1641936866.345,15.137,63.477,164.551,10.254,73.242
1641936866.349,21.973,50.781,177.246,9.277,70.312
1641936866.353,47.363,46.875,27.832,19.531,26.367
1641936866.355,43.945,49.316,43.457,0.488,42.969
1641936866.359,23.926,51.270,108.398,-14.160,47.363
1641936866.363,24.902,42.969,-5.371,-3.418,16.113
1641936866.367,47.363,45.410,-24.414,20.996,70.801
1641936866.371,59.570,52.734,53.711,29.297,55.176
1641936866.375,40.039,43.457,-62.500,15.137,5.371
1641936866.379,27.832,36.621,-127.441,-2.930,5.371
1641936866.382,45.898,31.250,-360.352,-1.953,-50.293
1641936866.386,70.312,53.223,-238.281,22.949,-36.621
1641936866.390,55.664,70.801,182.617,29.785,2.930
1641936866.394,33.691,58.105,82.031,20.020,-21.973
1641936866.398,42.969,54.688,-6.836,19.531,-24.902
1641936866.400,60.547,67.383,199.219,34.180,4.395
1641936866.404,48.340,67.383,212.402,36.621,29.785
1641936866.408,17.090,64.453,50.781,17.090,24.902
1641936866.412,18.066,62.988,36.621,10.742,-20.508
1641936866.416,45.410,60.059,104.492,28.809,-8.789
1641936866.420,46.387,55.664,41.992,45.898,0.488
1641936866.424,7.812,51.758,-191.895,21.973,-18.066
1641936866.427,-4.883,60.547,-251.953,-2.441,11.719
1641936866.431,36.621,70.312,56.152,16.602,13.672
1641936866.435,41.504,70.801,113.281,30.762,-8.789
1641936866.439,11.230,74.707,15.137,31.250,7.324
1641936866.443,1.465,79.590,98.633,6.348,26.367
1641936866.445,24.902,82.031,210.449,-0.488,25.879
1641936866.449,41.016,75.684,152.344,26.855,34.668
1641936866.453,24.414,78.613,99.121,29.785,41.504
1641936866.457,19.531,90.332,127.930,14.160,9.277
1641936866.461,37.598,89.844,161.621,6.348,62.500
1641936866.465,47.852,75.195,49.316,21.973,82.520
1641936866.469,29.785,72.266,-209.961,32.227,3.418
1641936866.472,7.324,95.703,-5.371,19.043,-4.395
1641936866.476,13.184,99.121,187.012,8.301,-13.672
1641936866.480,36.133,94.238,66.406,15.137,5.371
1641936866.484,41.016,102.539,31.738,36.133,28.809
1641936866.488,19.531,104.980,189.941,37.109,49.316
1641936866.505,10.254,94.727,269.531,20.508,62.500
1641936866.509,30.273,86.914,49.805,26.367,20.508
1641936866.513,42.969,92.773,-8.301,39.551,14.648
1641936866.517,26.855,95.703,150.391,41.992,-4.395
1641936866.521,14.648,94.727,158.203,41.992,-40.527
1641936866.525,38.086,96.680,12.695,48.340,-18.066
1641936866.529,58.105,91.309,-84.473,67.871,24.414
1641936866.532,39.062,85.938,102.051,59.570,34.180
1641936866.536,12.695,80.078,145.996,37.598,15.625
1641936866.540,17.090,80.566,-48.828,29.785,25.391
1641936866.544,42.480,86.914,-21.973,42.480,26.855
1641936866.548,30.762,93.750,164.551,53.223,25.879
1641936866.550,-5.371,95.703,182.129,34.668,7.812
1641936866.554,-14.160,78.613,-262.207,20.020,-64.941
1641936866.558,12.207,85.449,-328.125,25.879,-46.387
1641936866.562,26.855,93.262,115.723,45.898,44.434
1641936866.566,-6.836,76.660,94.238,39.062,50.293
1641936866.570,-24.902,73.730,-84.961,9.277,20.508
1641936866.574,-1.953,83.008,-98.145,14.160,37.598
1641936866.577,21.484,87.402,119.141,39.551,89.355
1641936866.581,-2.930,65.918,118.652,40.527,104.492
1641936866.585,-28.320,55.664,-165.527,19.531,79.590
1641936866.589,-3.418,72.266,-73.242,6.836,30.762
1641936866.593,23.438,76.660,159.668,35.156,25.879
1641936866.595,14.160,65.918,81.543,48.828,44.922
1641936866.599,-1.465,60.059,-48.828,24.902,21.484
1641936866.603,9.277,69.824,51.270,20.508,33.691
1641936866.607,28.320,67.383,42.969,36.133,71.777
1641936866.611,31.738,67.383,-177.246,51.758,46.875
1641936866.615,14.160,79.590,-262.207,37.109,13.184
1641936866.619,16.602,80.078,-250.488,11.230,14.160
1641936866.622,40.527,78.125,-216.309,24.414,58.594
1641936866.626,41.504,77.637,-354.492,45.898,51.758
1641936866.630,12.207,83.984,-322.754,38.086,5.859
1641936866.634,2.930,85.449,52.734,13.672,41.504
1641936866.638,23.926,73.242,72.266,18.066,37.598
1641936866.641,32.227,75.195,-2.441,43.457,28.809
1641936866.645,9.277,80.566,56.152,37.598,25.391
1641936866.649,-7.324,81.055,59.082,13.184,9.277
1641936866.653,7.812,82.031,2.441,14.648,21.973
1641936866.657,32.227,81.543,-57.617,34.668,20.508
1641936866.661,20.020,88.867,-68.848,20.508,41.016
1641936866.665,-10.742,100.098,-106.934,-12.695,41.504
1641936866.668,-4.883,84.473,-142.578,3.418,5.859
1641936866.672,20.020,68.359,-395.020,25.391,-41.992
1641936866.676,32.715,99.121,-201.660,42.480,-0.488
1641936866.680,15.625,100.098,210.938,36.133,54.688
1641936866.684,3.418,81.055,96.680,4.883,49.805
1641936866.685,29.785,86.914,83.008,27.832,60.547
1641936866.689,30.273,87.402,207.520,56.641,95.703
1641936866.693,-1.465,86.426,202.148,61.523,111.328
1641936866.697,-13.184,87.402,89.355,41.992,87.402
1641936866.701,14.648,85.938,71.777,26.855,57.129
1641936866.705,41.016,83.496,35.156,43.457,55.176
1641936866.709,23.926,87.891,67.871,30.273,82.520
1641936866.712,-0.488,82.031,-96.680,10.742,45.410
1641936866.716,7.324,83.496,-218.750,14.648,12.695
1641936866.720,31.250,95.703,70.801,33.203,27.344
1641936866.724,27.832,93.262,124.023,42.480,46.387
1641936866.728,8.789,85.938,15.625,26.367,48.828
1641936866.730,19.531,86.914,58.105,22.949,11.230
1641936866.734,52.246,82.031,189.941,30.762,-6.348
1641936866.738,50.293,67.871,115.723,46.875,-25.879
1641936866.742,10.742,68.848,86.914,47.363,-39.062
1641936866.746,-11.719,74.219,123.047,9.766,-30.762
1641936866.750,-3.906,69.824,-29.297,-2.441,-55.664
1641936866.754,1.953,69.336,-73.730,13.672,-30.762
1641936866.757,-22.949,67.383,-209.961,9.766,-9.766
1641936866.761,-34.180,80.078,-116.699,-17.578,-40.039
1641936866.765,-8.789,78.613,117.676,-27.832,-10.742
1641936866.769,25.391,72.266,83.008,6.348,22.949
1641936866.773,15.625,77.148,33.691,-6.348,38.086
1641936866.776,-10.742,83.984,32.715,-35.156,61.035
1641936866.780,10.742,85.938,144.531,-22.461,83.984
1641936866.784,43.457,79.102,52.734,-3.906,60.059
1641936866.788,34.180,91.309,-26.855,9.766,19.531
1641936866.792,4.395,98.633,178.223,-8.789,39.551
1641936866.796,-1.953,81.055,116.211,-17.578,56.152
1641936866.800,9.277,65.430,-194.824,0.977,24.414
1641936866.803,5.371,69.824,-167.480,21.973,32.715
1641936866.807,-22.461,80.566,215.332,37.109,62.988
1641936866.811,-41.504,77.148,272.949,4.883,53.711
1641936866.815,-25.879,73.730,173.828,-4.883,43.945
1641936866.819,-10.742,75.684,156.738,20.020,35.156
1641936866.835,-21.484,80.566,215.820,2.930,49.805
1641936866.839,-39.551,67.383,159.180,-15.625,80.078
1641936866.843,-20.996,62.500,55.664,-9.766,56.641
1641936866.847,19.531,76.172,106.445,17.090,68.359
1641936866.851,25.879,86.426,177.246,34.180,67.871
1641936866.855,9.766,77.637,53.711,1.953,53.711
1641936866.859,19.531,57.617,-338.379,-17.090,21.973
1641936866.862,62.012,83.984,-306.641,0.488,-16.602
1641936866.866,86.914,102.051,134.277,17.578,36.133
1641936866.870,62.012,74.219,67.871,11.230,38.086
1641936866.874,61.523,76.660,17.090,0.000,64.941
1641936866.878,94.727,84.473,129.883,-0.977,78.613
1641936866.880,101.074,81.055,94.727,18.555,62.988
1641936866.884,70.801,85.938,-3.906,36.621,73.730
1641936866.888,40.527,83.008,-60.547,16.602,15.625
1641936866.892,51.758,83.984,-7.324,21.484,-12.695
1641936866.896,59.082,87.402,22.461,38.574,0.977
1641936866.900,19.531,83.496,-126.953,27.344,0.488
1641936866.904,-11.230,82.520,-223.145,3.418,21.484
1641936866.907,-3.906,81.055,-138.184,-10.254,13.184
1641936866.911,10.742,85.449,25.391,12.695,30.273
1641936866.915,-9.766,74.219,-232.910,24.902,18.555
1641936866.919,-30.273,80.078,-429.688,4.883,41.992
1641936866.923,-11.230,103.516,-57.617,-0.488,58.594
1641936866.925,9.277,89.355,37.598,20.508,38.086
1641936866.929,14.648,80.566,-20.508,38.574,43.457
1641936866.933,0.000,80.078,76.660,29.297,87.891
1641936866.937,3.418,74.707,118.652,9.766,90.820
1641936866.941,31.250,68.848,54.199,22.461,36.621
1641936866.945,40.527,63.477,-139.648,40.039,18.555
1641936866.949,36.133,74.707,-219.238,42.480,18.066
1641936866.952,33.203,88.379,6.836,24.902,45.898
1641936866.956,44.922,74.219,-44.922,17.090,13.184
1641936866.960,57.617,63.965,-529.785,43.457,-76.660
1641936866.964,51.758,82.520,-341.797,55.664,3.906
1641936866.968,31.250,78.613,79.102,39.551,88.379
1641936866.970,25.879,71.289,-84.961,15.625,65.918
1641936866.974,38.574,82.520,-130.859,28.320,90.820
1641936866.978,38.574,85.938,59.082,59.570,97.168
1641936866.982,12.695,77.637,77.148,48.828,91.797
1641936866.986,2.930,72.754,-61.035,40.527,71.777
1641936866.990,30.762,77.148,-169.922,56.641,54.199
1641936866.994,26.855,76.660,-171.387,66.406,31.738
1641936866.997,-0.977,75.684,-20.508,68.359,18.066
1641936867.001,-10.742,62.988,-208.984,52.734,49.805
1641936867.005,12.207,67.383,-354.492,56.641,56.641
1641936867.009,45.410,76.172,9.277,77.148,70.801
1641936867.013,31.250,63.965,23.926,79.590,101.562
1641936867.015,5.371,64.453,-160.645,64.941,73.730
1641936867.019,11.719,75.195,-99.609,60.059,38.574
1641936867.023,21.973,69.824,56.641,83.496,53.223
1641936867.027,-14.160,58.594,58.594,83.984,92.773
1641936867.031,-46.875,58.594,-18.066,52.246,99.121
1641936867.035,-33.203,59.082,-117.188,30.273,101.074
1641936867.039,5.859,67.871,-103.027,38.574,49.805
1641936867.042,12.695,62.012,-65.918,58.105,35.156
1641936867.046,-14.160,49.805,-261.230,38.086,58.105
1641936867.050,-0.977,62.988,-116.211,26.855,62.012
1641936867.054,36.621,64.453,86.426,59.570,65.430
1641936867.058,52.246,55.176,28.809,74.707,67.383
1641936867.061,42.969,54.199,72.754,73.242,60.059
1641936867.065,35.156,62.012,82.520,41.504,31.738
1641936867.069,55.176,67.871,-16.602,26.367,23.926
1641936867.073,63.965,66.895,-118.164,50.781,33.203
1641936867.077,36.621,70.312,-94.727,50.293,34.180
1641936867.081,13.672,74.707,-44.434,27.344,33.691
1641936867.085,16.113,72.754,-36.621,6.836,23.438
1641936867.088,16.602,59.082,-229.492,16.602,-9.277
1641936867.092,1.953,61.035,-350.098,25.391,-32.715
1641936867.096,-13.672,80.078,-13.672,9.277,0.977
1641936867.100,-17.090,73.242,15.625,-4.883,-0.977
1641936867.104,14.160,77.148,-36.133,9.766,-21.973
1641936867.105,23.438,83.008,31.250,39.062,10.742
1641936867.109,6.348,73.242,85.938,20.020,8.301
1641936867.113,11.230,62.988,-6.836,-10.254,-34.668
1641936867.117,45.898,62.012,-56.641,5.859,-17.578
1641936867.121,64.941,62.500,35.645,22.949,16.602
1641936867.125,50.293,60.059,-61.035,14.648,20.508
1641936867.129,42.480,60.059,-174.805,-2.441,-0.488
1641936867.132,62.012,47.852,-420.410,0.000,-40.039
1641936867.136,100.098,68.848,-246.582,31.738,0.000
1641936867.140,97.656,77.637,177.246,42.480,52.246
1641936867.144,63.477,61.035,25.391,18.066,18.066
1641936867.148,73.730,62.988,-13.672,13.672,41.504
1641936867.150,86.426,66.895,101.074,29.785,74.219
1641936867.154,63.965,68.359,83.984,41.016,35.645
1641936867.158,32.227,69.824,25.391,25.879,5.859
1641936867.162,22.949,69.824,40.039,10.254,28.320
1641936867.166,42.480,70.801,141.602,27.832,71.289
1641936867.170,37.598,69.336,25.391,35.156,34.180
1641936867.174,1.953,63.477,-218.750,18.555,-9.766
1641936867.177,-3.906,69.336,-333.984,0.488,-3.906
1641936867.181,41.992,92.773,-159.668,20.020,1.465
1641936867.185,55.664,103.027,105.469,51.270,52.246
1641936867.189,29.297,92.773,95.215,43.945,73.730
1641936867.193,13.184,90.820,156.738,-3.418,52.246
1641936867.210,28.809,102.051,416.504,-31.250,53.223
1641936867.214,80.078,107.422,557.617,24.902,69.824
1641936867.218,96.680,115.723,629.883,55.664,36.621
1641936867.222,91.797,133.301,861.328,51.270,31.738
1641936867.226,115.234,130.859,-984.375,68.359,47.852
1641936867.230,148.926,119.629,990.723,93.262,-17.578
1641936867.234,160.645,136.719,994.629,133.301,-31.738
1641936867.237,157.715,166.016,998.047,156.738,-35.645
1641936867.241,168.457,178.223,-1000.000,170.898,-30.273
1641936867.245,202.637,179.199,999.023,188.477,6.348
1641936867.249,229.980,183.594,999.512,226.562,32.715
1641936867.253,191.406,194.336,999.512,230.957,9.277
1641936867.241,155.762,193.359,999.512,199.219,-5.859
1641936867.245,165.039,177.734,999.512,192.383,8.789
1641936867.249,156.738,180.664,999.512,184.082,21.973
1641936867.253,101.074,186.523,999.512,149.414,36.621
1641936867.257,32.227,176.758,999.512,87.402,12.695
1641936867.261,2.930,174.316,-1000.000,23.926,38.574
1641936867.265,-14.648,174.316,988.770,-12.207,63.965
1641936867.268,-67.871,162.598,997.070,-70.312,61.035
1641936867.272,-128.906,139.160,938.965,-144.531,65.430
1641936867.276,-167.480,106.934,335.938,-189.453,57.129
1641936867.280,-177.246,107.910,-18.066,-208.496,53.223
1641936867.284,-193.359,115.234,80.078,-209.473,85.449
1641936867.300,-245.117,89.844,-207.520,-234.863,98.145
1641936867.304,-249.512,75.195,-560.547,-258.301,91.797
1641936867.308,-211.914,71.777,-635.254,-248.535,96.680
1641936867.312,-197.266,65.430,-557.129,-228.516,99.609
1641936867.316,-216.309,54.199,-660.156,-224.121,84.961
1641936867.320,-224.609,33.691,-916.504,-241.211,74.707
1641936867.324,-176.758,42.969,-972.168,-229.492,50.781
1641936867.327,-130.859,46.387,-846.191,-181.152,106.445
1641936867.331,-138.672,24.902,-859.375,-160.645,145.508
1641936867.335,-145.996,17.578,-977.051,-169.434,34.180
1641936867.339,-105.957,25.879,-932.129,-161.133,13.672
1641936867.343,-67.383,25.879,-741.699,-114.746,83.496
1641936867.345,-65.430,16.602,-808.594,-83.984,48.340
1641936867.349,-80.566,15.137,-927.734,-94.727,22.949
1641936867.353,-63.477,20.508,-767.578,-89.355,86.426
1641936867.357,-18.555,20.996,-668.945,-63.965,88.867
1641936867.361,-19.043,17.578,-816.406,-32.715,33.691
1641936867.365,-38.574,24.902,-895.020,-29.785,46.387
1641936867.369,-31.738,25.879,-843.750,-48.828,-0.488
1641936867.372,7.324,26.855,-709.473,-23.438,17.578
1641936867.376,27.344,15.625,-779.785,7.812,53.223
1641936867.380,6.836,16.113,-910.156,6.836,17.090
1641936867.384,7.324,36.133,-627.930,1.465,53.223
1641936867.388,35.645,27.832,-558.594,11.719,59.570
1641936867.392,62.012,21.484,-588.867,45.410,75.684
1641936867.396,59.570,33.691,-479.492,56.152,74.707
1641936867.400,45.410,35.645,-415.527,37.598,38.086
1641936867.404,54.199,27.832,-472.168,37.109,30.762
1641936867.408,83.984,25.879,-485.352,55.664,29.297
1641936867.412,84.961,24.902,-475.098,63.477,45.898
1641936867.416,66.895,30.273,-519.043,45.410,53.711
1641936867.419,76.172,33.691,-558.594,43.945,13.672
1641936867.423,98.633,28.320,-777.344,60.547,-20.508
1641936867.427,109.863,47.363,-582.031,75.684,4.395
1641936867.431,89.844,53.711,-141.113,79.590,42.480
1641936867.435,66.406,34.668,-200.684,76.660,44.922
1641936867.435,86.914,30.273,-271.484,102.539,-3.906
1641936867.439,100.586,32.715,-175.293,117.188,-20.996
1641936867.443,74.707,34.668,-107.910,106.934,-5.371
1641936867.447,57.129,33.691,-186.523,87.402,-1.465
1641936867.451,81.543,36.133,-219.238,84.473,6.836
1641936867.455,104.980,40.527,-177.246,111.328,6.348
1641936867.459,85.449,44.922,-209.473,122.070,24.414
1641936867.462,47.852,48.828,-409.668,98.633,22.461
1641936867.466,55.664,58.594,-369.629,83.008,50.293
1641936867.470,90.332,62.012,-78.125,92.285,73.730
1641936867.474,80.078,49.805,-57.129,103.516,44.922
1641936867.478,42.480,48.828,-165.527,80.566,2.441
1641936867.480,42.480,60.059,-97.168,64.941,11.230
1641936867.484,67.871,60.547,41.992,75.195,50.781
1641936867.488,68.848,51.270,-26.367,87.402,38.086
1641936867.492,41.504,49.805,-92.773,83.984,28.809
1641936867.496,28.320,52.734,-63.477,61.523,65.918
1641936867.500,53.223,53.711,-125.488,68.359,63.965
1641936867.504,65.918,47.852,-223.145,82.520,34.668
1641936867.507,43.457,51.758,-392.578,74.707,24.902
1641936867.511,29.297,72.754,-206.543,65.918,47.852
1641936867.515,42.969,69.336,25.879,63.965,41.992
1641936867.519,66.406,59.570,-39.551,82.520,22.949
1641936867.523,58.105,53.711,-24.902,83.496,33.203
1641936867.526,31.250,61.523,-50.781,65.918,33.691
1641936867.530,40.039,71.289,15.625,68.359,64.941
1641936867.534,66.895,59.570,-85.938,73.730,80.078
1641936867.538,67.871,61.523,-198.730,83.496,68.359
1641936867.542,47.852,70.801,-34.180,68.848,38.574
1641936867.546,40.527,62.012,-123.047,44.922,-11.230
1641936867.550,59.570,56.152,-444.336,57.129,-13.672
1641936867.553,73.730,72.266,-483.887,72.754,-6.836
1641936867.557,55.664,80.078,-124.512,73.730,21.484
1641936867.561,38.086,59.570,-109.863,44.434,23.438
1641936867.565,57.617,60.059,-184.570,34.668,34.668
1641936867.569,75.684,65.918,-85.938,65.918,60.059
1641936867.570,54.199,68.848,-19.043,69.336,42.480
1641936867.574,32.227,67.871,-48.340,46.387,10.254
1641936867.578,41.992,61.035,-143.555,30.273,3.906
1641936867.582,67.871,68.848,-164.551,41.504,26.855
1641936867.586,65.918,71.777,-54.688,67.871,13.672
1641936867.590,32.715,58.594,-108.887,56.152,40.527
1641936867.594,27.344,49.805,-497.559,35.645,9.277
1641936867.597,58.594,74.707,-380.859,44.922,-31.738
1641936867.601,66.406,82.520,-10.742,69.336,29.297
1641936867.605,33.203,67.871,-121.094,67.383,-12.207
1641936867.609,21.484,73.242,-145.020,44.922,-2.930
1641936867.613,52.734,73.730,-11.719,52.246,55.176
1641936867.630,82.520,66.406,44.922,78.613,50.293
1641936867.634,44.922,53.711,-72.266,72.754,29.785
1641936867.638,-1.953,55.176,-147.461,39.551,40.527
1641936867.642,19.043,66.406,-20.996,42.480,71.289
1641936867.646,43.457,58.594,23.926,66.895,57.617
1641936867.650,26.367,47.852,-142.578,56.152,22.949
1641936867.654,0.977,51.758,-240.723,37.598,18.066
1641936867.657,11.230,62.012,-153.809,33.691,83.008
1641936867.661,32.227,61.523,-67.383,50.781,119.141
1641936867.665,27.344,61.035,-62.012,68.359,91.309
1641936867.669,8.301,67.871,-87.891,47.852,60.547
1641936867.673,9.766,69.824,-123.535,31.250,28.320
1641936867.675,34.668,67.871,-55.664,43.457,27.344
1641936867.679,27.832,54.688,-318.848,55.664,-0.488
1641936867.683,11.230,74.219,-394.043,44.922,-7.324
1641936867.687,14.648,88.379,-4.395,27.344,46.387
1641936867.691,26.855,68.359,18.555,31.250,56.152
1641936867.695,37.598,58.594,-185.059,49.316,-13.672
1641936867.699,29.785,65.430,-165.039,53.711,-27.344
1641936867.702,16.113,71.777,63.477,32.227,5.859
1641936867.706,28.809,54.688,23.926,21.973,-2.441
1641936867.710,48.828,34.180,-398.438,45.898,-54.688
1641936867.714,44.922,60.547,-246.582,55.176,-36.133
1641936867.718,23.438,75.195,127.441,39.062,17.090
1641936867.720,14.648,63.477,-26.855,23.926,34.180
1641936867.724,31.738,61.035,-31.250,29.297,53.711
1641936867.728,24.902,53.223,57.129,41.992,32.715
1641936867.732,-10.742,56.641,37.598,17.578,48.828
1641936867.736,-17.090,60.547,-90.332,-14.160,59.570
1641936867.740,10.254,53.711,-202.637,-4.395,65.430
1641936867.744,19.043,56.152,-176.758,5.371,85.938
1641936867.747,-6.348,69.824,-91.309,-11.230,56.152
1641936867.751,-29.785,58.105,-302.734,-39.062,21.973
1641936867.755,-4.395,65.918,-391.113,-27.344,40.527
1641936867.759,31.738,85.938,-0.488,-7.324,58.105
1641936867.763,8.789,72.266,-71.777,-18.555,-5.859
1641936867.764,-12.207,78.613,-202.148,-26.367,-34.668
1641936867.768,12.695,90.820,-29.297,-35.156,-19.531
1641936867.772,39.551,80.566,127.441,-8.301,30.762
1641936867.776,19.531,71.289,52.734,1.465,47.363
1641936867.780,-17.090,80.078,-50.293,-23.926,35.156
1641936867.784,-17.578,80.078,-131.836,-20.508,1.465
1641936867.788,8.789,86.426,-73.242,-4.395,10.742
1641936867.791,4.395,79.102,-3.418,11.230,60.059
1641936867.795,-27.832,75.684,-223.145,-4.883,32.227
1641936867.799,-17.578,97.656,-74.707,-21.484,17.090
1641936867.803,16.602,93.262,134.277,-2.441,33.691
1641936867.807,28.809,84.961,45.898,17.090,7.812
1641936867.811,13.184,83.008,31.738,20.020,-3.906
1641936867.815,8.301,83.984,102.539,-5.371,16.113
1641936867.819,34.180,81.055,41.992,-12.207,7.812
1641936867.823,61.523,77.148,-96.191,14.160,7.324
1641936867.827,58.594,83.496,-27.344,23.926,47.363
1641936867.831,46.875,83.496,26.367,8.789,29.785
1641936867.835,61.035,82.031,-80.078,-7.324,14.160
1641936867.838,83.008,78.613,-234.863,7.812,6.836
1641936867.842,69.824,83.984,-271.973,27.832,-24.902
1641936867.846,50.781,92.773,37.109,15.137,-1.953
1641936867.850,53.711,73.730,81.543,5.371,19.531
1641936867.854,64.453,65.430,-46.875,11.230,14.160
1641936867.855,60.059,77.148,11.230,21.973,-17.090
1641936867.859,21.973,83.496,128.906,21.484,0.488
1641936867.863,1.465,62.988,78.125,8.301,29.297
1641936867.867,24.902,61.035,-10.742,16.602,42.969
1641936867.871,31.250,84.473,40.039,26.367,54.199
1641936867.875,-3.906,84.473,0.488,15.625,59.082
1641936867.879,-30.762,80.566,-104.492,-7.812,93.750
1641936867.882,-26.367,71.777,-424.805,-13.184,38.086
1641936867.886,-2.441,90.332,-304.199,13.184,32.715
1641936867.890,-10.742,104.980,100.586,13.672,89.355
1641936867.894,-35.156,88.379,9.766,-9.277,64.941
1641936867.898,-13.672,88.867,-36.133,-7.324,23.438
1641936867.899,28.809,90.820,120.605,26.367,5.371
1641936867.903,29.297,80.566,152.832,47.852,9.277
1641936867.907,-2.441,70.312,46.875,27.832,18.555
1641936867.911,1.953,70.312,46.875,18.066,41.504
1641936867.915,31.738,72.754,115.723,35.645,58.594
1641936867.919,29.785,69.336,28.809,49.316,19.043
1641936867.923,-3.418,62.012,-204.590,39.551,-21.973
1641936867.926,-12.695,64.453,-364.258,16.113,-20.508
1641936867.930,23.438,80.078,-135.254,29.785,31.738
1641936867.934,38.086,72.754,61.035,64.453,41.016
1641936867.938,8.789,63.477,-67.871,64.941,2.441
1641936867.942,-16.113,72.754,-57.617,44.922,27.832
1641936867.944,-2.930,76.172,72.754,37.598,54.688
1641936867.948,20.508,74.707,16.113,59.570,52.246
1641936867.952,0.000,79.102,-0.488,67.871,31.250
1641936867.956,-27.344,88.867,47.363,43.457,18.555
1641936867.960,-20.020,87.402,101.562,35.156,54.688
1641936867.964,0.488,71.289,-49.316,50.293,17.090
1641936867.968,5.371,67.383,-341.797,62.988,-19.043
1641936867.971,0.000,92.773,-124.023,59.082,25.879
1641936867.975,1.953,93.750,174.316,54.688,64.941
1641936867.979,18.555,81.543,18.555,66.406,-0.488
1641936867.983,1.465,80.078,-143.066,82.031,-43.945
1641936867.987,-36.621,84.473,-87.402,85.938,-5.859
1641936867.992,-60.059,85.938,76.660,62.012,35.156
1641936867.996,-46.387,70.801,-70.312,48.340,46.387
1641936868.000,-17.090,78.125,-91.309,52.246,55.664
1641936868.004,-20.508,83.984,180.664,42.480,65.918
1641936868.008,-26.855,69.824,139.160,28.809,42.480
1641936868.012,-3.418,71.777,-6.348,31.738,75.684
1641936868.016,25.879,83.008,-64.941,61.035,83.984
1641936868.019,32.227,85.449,51.758,75.195,50.293
1641936868.023,25.879,82.031,180.664,54.199,92.773
1641936868.027,29.297,61.035,-146.484,38.574,95.703
1641936868.031,63.477,69.824,-208.984,46.875,36.133
1641936868.035,84.473,87.402,140.137,64.941,40.039
1641936868.051,44.922,82.031,139.160,45.410,78.613
1641936868.055,21.973,79.102,26.855,19.043,77.148
1641936868.059,43.945,75.195,42.480,35.156,57.617
1641936868.063,49.805,72.266,158.203,61.523,74.707
1641936868.067,18.066,60.059,148.926,61.035,64.941
1641936868.071,-19.531,46.387,-291.992,32.715,12.207
1641936868.075,-4.395,63.965,-335.449,20.508,10.254
1641936868.078,25.879,77.637,92.773,41.992,24.902
1641936868.082,-0.488,64.941,-3.906,41.992,-45.898
1641936868.086,-25.391,67.871,-78.613,16.602,-41.504
1641936868.090,-2.930,71.777,80.566,0.977,23.926
1641936868.094,26.855,69.336,62.988,20.508,-12.207
1641936868.095,21.973,70.312,-40.527,44.434,0.977
1641936868.099,5.371,71.777,17.578,32.715,46.875
1641936868.103,19.043,74.707,158.691,22.949,37.598
1641936868.107,51.270,72.754,160.156,27.832,53.711
1641936868.111,61.035,72.754,31.738,46.387,66.406
1641936868.115,40.527,74.219,-80.566,45.898,48.340
1641936868.119,32.715,83.984,-49.316,18.555,43.457
1641936868.122,59.570,90.820,141.113,31.250,33.203
1641936868.126,59.082,73.730,-20.508,37.109,-18.555
1641936868.130,24.414,86.426,-291.992,21.973,-78.613
1641936868.134,13.672,113.281,47.852,8.789,-12.207
1641936868.138,23.926,92.773,198.730,-1.465,7.324
1641936868.141,30.762,85.449,104.004,15.625,-27.832
1641936868.145,14.160,91.309,152.832,16.113,-13.184
1641936868.149,-12.207,84.473,152.344,-2.441,-39.551
1641936868.153,-9.277,84.961,39.062,-9.766,-59.570
1641936868.157,15.625,83.984,5.859,10.742,-9.766
1641936868.161,14.648,76.172,7.324,22.949,42.969
1641936868.165,-12.207,76.172,-35.645,1.465,60.547
1641936868.168,-17.578,79.102,-67.383,-16.113,32.227
1641936868.172,11.719,68.848,-328.613,-8.789,30.273
1641936868.176,27.344,81.543,-161.133,12.695,59.082
1641936868.180,9.766,83.496,220.215,9.766,54.688
1641936868.184,3.418,75.195,87.402,-13.184,10.742
1641936868.185,24.902,81.543,65.430,-9.766,-8.301
1641936868.189,45.898,77.148,189.941,13.672,15.625
1641936868.193,33.203,69.824,177.734,13.672,-6.836
1641936868.197,10.254,74.707,79.102,-10.742,-42.969
1641936868.201,18.066,81.055,84.473,-17.090,-26.367
1641936868.205,33.691,73.242,25.879,5.859,-25.879
1641936868.209,30.273,82.031,22.949,20.508,-29.785
1641936868.212,-5.371,72.754,-139.160,-0.488,-29.297
1641936868.216,-1.465,80.078,-222.656,-11.719,-8.789
1641936868.220,37.598,94.727,18.066,7.324,22.461
1641936868.224,32.227,72.754,-49.805,20.508,-26.367
1641936868.228,11.719,72.266,-57.129,9.766,-25.879
1641936868.230,25.391,79.102,45.410,-0.488,-3.906
1641936868.234,67.871,80.566,178.711,20.996,15.625
1641936868.238,62.500,74.219,166.016,25.391,13.184
1641936868.242,32.227,76.172,66.895,8.789,-10.742
1641936868.246,38.086,87.402,59.082,-4.883,-5.859
1641936868.250,55.176,76.660,-29.297,-2.441,15.625
1641936868.254,62.500,66.895,-136.719,13.184,4.395
1641936868.257,41.016,71.289,-282.227,10.742,-46.387
1641936868.261,19.043,82.031,-75.195,-2.930,-49.805
1641936868.265,31.250,74.707,231.445,-10.254,-14.648
1641936868.269,52.734,62.500,121.582,4.395,-32.715
1641936868.273,42.480,62.012,93.750,13.184,-42.480
1641936868.276,17.578,69.824,87.402,0.000,-38.574
1641936868.280,12.695,77.148,113.281,1.465,-16.113
1641936868.284,29.297,69.824,52.734,25.879,-29.785
1641936868.288,24.414,74.219,30.762,43.945,-37.109
1641936868.292,-10.254,72.754,194.824,34.180,-9.766
1641936868.296,-20.020,64.941,93.262,14.648,-27.344
1641936868.300,-2.441,59.570,-201.660,18.066,-40.039
1641936868.303,19.043,72.754,-203.125,47.363,-2.930
1641936868.307,15.137,94.238,179.688,54.688,14.160
1641936868.311,-8.789,79.590,185.547,19.531,26.855
1641936868.315,1.953,69.336,75.195,16.602,36.621
1641936868.319,25.879,71.289,164.062,56.641,58.594
1641936868.350,13.184,69.336,261.719,57.129,84.961
1641936868.354,-14.160,61.523,143.555,29.297,25.391
1641936868.358,-0.488,61.035,65.918,20.508,51.270
1641936868.362,21.484,63.477,99.121,40.527,88.867
1641936868.366,21.973,67.871,153.320,55.176,65.918
1641936868.370,2.930,56.641,114.258,32.715,108.887
1641936868.374,-18.066,41.016,-282.715,17.090,57.617
1641936868.377,17.090,71.289,-181.152,27.832,30.273
1641936868.381,41.504,83.984,220.215,44.434,62.988
1641936868.385,7.324,69.824,99.121,43.945,16.602
1641936868.389,-5.371,64.941,59.570,20.996,-3.418
1641936868.393,25.391,64.941,201.172,27.832,23.438
1641936868.380,36.621,65.918,242.676,43.457,27.832
1641936868.384,4.883,65.430,120.117,37.598,22.949
1641936868.388,-2.441,72.754,146.973,40.527,57.617
1641936868.392,41.992,79.102,213.867,61.523,58.594
1641936868.396,53.223,91.309,152.832,67.871,53.223
1641936868.400,2.441,91.797,-51.270,20.996,43.457
1641936868.404,-31.738,85.938,-245.605,-20.020,36.621
1641936868.407,-13.672,97.168,-152.832,-14.648,50.781
1641936868.411,14.160,110.352,80.566,4.395,73.730
1641936868.415,2.441,85.938,-113.770,1.953,38.574
1641936868.419,-21.484,87.402,-391.602,-24.902,-45.410
1641936868.423,-21.973,118.164,-45.898,-30.762,-15.625
1641936868.425,-2.930,104.004,125.000,-2.930,27.344
1641936868.429,-0.977,90.820,29.297,18.066,14.648
1641936868.433,-18.555,92.285,22.949,10.254,-9.766
1641936868.437,-20.996,94.727,42.480,-12.695,-7.812
1641936868.441,-4.395,78.613,-13.672,-4.395,17.090
1641936868.445,7.812,62.012,-129.395,21.484,16.113
1641936868.449,-4.395,78.613,-124.512,25.879,0.488
1641936868.452,-12.207,93.262,59.570,7.324,36.621
1641936868.456,1.953,75.684,56.641,-2.930,31.738
1641936868.460,15.625,61.035,-336.914,16.113,-29.297
1641936868.464,13.672,85.938,-191.895,27.832,2.441
1641936868.468,-8.301,85.449,196.289,19.043,28.809
1641936868.470,-5.859,73.242,94.238,5.859,26.855
1641936868.474,28.320,82.031,99.609,16.113,50.781
1641936868.478,29.297,90.332,221.191,37.109,47.363
1641936868.482,1.465,93.262,248.047,23.926,40.039
1641936868.486,-7.812,85.938,139.160,4.883,23.438
1641936868.490,14.160,76.172,-12.207,11.230,-7.812
1641936868.494,28.809,78.125,-29.297,26.367,-0.488
1641936868.497,9.766,87.891,90.332,28.809,44.922
1641936868.501,-1.953,77.148,-41.504,20.020,41.992
1641936868.505,25.879,78.613,-158.203,22.949,16.113
1641936868.509,52.246,87.891,140.625,37.109,11.230
1641936868.513,26.367,68.848,21.973,41.504,-21.973
1641936868.515,4.883,80.566,-122.070,29.297,3.906
1641936868.519,27.344,100.586,65.430,24.902,41.504
1641936868.523,51.270,91.797,226.562,44.922,24.414
1641936868.527,35.156,79.102,152.344,51.758,57.129
1641936868.531,8.301,79.590,61.523,32.715,82.520
1641936868.535,14.648,79.590,-62.012,22.461,29.785
1641936868.539,45.898,87.402,-16.602,42.480,35.645
1641936868.542,41.016,83.008,95.703,57.129,43.945
1641936868.546,7.324,75.195,-212.402,34.180,13.672
1641936868.550,17.090,96.680,-55.664,19.043,41.992
1641936868.554,39.062,95.215,267.578,38.574,96.680
1641936868.558,36.621,83.984,145.996,54.199,77.148
1641936868.560,2.930,86.426,102.051,53.711,38.574
1641936868.564,-22.949,88.379,244.141,34.668,87.402
1641936868.568,7.812,75.195,236.328,36.621,116.211
1641936868.572,35.645,68.848,-59.082,63.965,72.754
1641936868.576,18.066,82.520,-62.012,62.012,67.383
1641936868.580,-1.953,82.031,0.000,47.363,73.242
1641936868.584,12.207,80.078,-9.766,35.156,71.777
1641936868.587,44.434,70.312,-113.770,45.898,37.109
1641936868.591,35.156,75.195,-169.434,62.988,30.273
1641936868.595,6.348,87.891,142.578,44.922,49.805
1641936868.599,1.953,77.148,162.598,26.855,14.648
1641936868.603,34.180,79.102,115.723,34.180,42.969
1641936868.606,49.316,81.543,215.820,58.105,100.098
1641936868.610,26.855,82.031,291.992,62.988,76.660
1641936868.614,10.254,83.496,221.680,40.039,55.664
1641936868.618,24.902,91.309,138.672,40.527,58.105
1641936868.622,37.598,96.191,165.039,58.594,34.180
1641936868.626,15.137,97.168,86.426,53.711,30.273
1641936868.630,2.930,92.773,-54.199,32.227,55.176
1641936868.633,19.043,80.566,-318.848,25.879,35.645
1641936868.637,45.898,104.492,-230.469,38.574,39.551
1641936868.641,39.551,122.559,153.809,36.621,61.035
1641936868.645,16.113,104.004,107.910,22.461,30.273
1641936868.649,25.879,98.145,117.188,18.066,56.641
1641936868.650,54.199,102.539,223.145,23.438,44.434
1641936868.654,56.152,97.168,242.188,27.832,26.367
1641936868.658,40.527,92.285,182.129,6.348,53.711
1641936868.662,44.434,94.727,116.699,-16.113,30.762
1641936868.666,62.500,100.586,174.316,3.906,-18.555
1641936868.670,61.035,96.680,145.508,33.691,6.836
1641936868.674,24.902,84.961,-154.297,26.855,-11.230
1641936868.677,6.836,85.938,-260.254,-0.977,-28.320
1641936868.681,26.367,94.238,-45.410,4.395,-6.836
1641936868.685,27.832,83.496,75.684,26.855,-23.438
1641936868.689,3.906,80.078,34.668,17.090,-10.742
1641936868.693,2.441,86.426,-6.348,-11.230,-24.414
1641936868.695,18.555,85.449,100.098,-20.020,-22.949
1641936868.699,32.227,84.961,102.539,-2.930,-20.996
1641936868.703,23.438,83.008,66.406,5.371,20.508
1641936868.707,6.836,90.820,108.887,-10.254,40.039
1641936868.711,23.926,92.285,164.551,-20.508,-14.648
1641936868.715,49.805,79.590,52.246,-11.230,-45.410
1641936868.719,37.598,72.754,-224.609,5.859,-32.715
1641936868.722,14.160,93.750,-79.102,-2.441,14.648
1641936868.726,12.207,102.539,206.543,-12.207,45.898
1641936868.730,26.367,97.168,140.625,9.277,55.176
1641936868.734,20.508,91.797,50.781,32.715,46.387
1641936868.738,-12.695,93.262,120.117,27.832,53.223
1641936868.741,-29.785,101.074,260.254,9.766,75.684
1641936868.745,-18.555,88.867,109.375,11.719,32.227
1641936868.749,-6.348,89.355,35.645,26.367,-35.645
1641936868.753,-31.738,97.656,263.184,28.320,-7.324
1641936868.757,-59.570,91.797,317.383,9.277,16.602
1641936868.761,-67.383,78.613,12.695,-5.371,23.926
1641936868.765,-52.734,88.379,-52.246,20.508,47.363
1641936868.768,-9.766,105.469,303.223,55.664,64.453
1641936868.772,-12.207,93.262,307.129,28.320,63.965
1641936868.776,-30.273,70.801,56.641,-24.414,4.395
1641936868.780,11.230,69.824,-20.508,-22.461,-21.973
1641936868.784,40.039,79.590,119.629,4.395,23.438
1641936868.801,18.555,76.172,97.656,-9.766,14.160
1641936868.805,21.484,72.266,-44.922,-30.273,22.461
1641936868.809,57.129,82.031,-70.312,-15.625,38.574
1641936868.813,76.172,89.844,78.125,11.230,28.809
1641936868.817,52.734,74.707,79.102,10.742,31.738
1641936868.821,22.461,54.199,-365.234,-14.648,-23.438
1641936868.825,41.504,65.430,-437.500,-23.926,-34.668
1641936868.828,67.383,81.543,-31.250,5.859,26.855
1641936868.832,33.203,70.312,-67.871,12.695,52.734
1641936868.836,-3.418,72.266,-178.711,-7.324,49.805
1641936868.840,8.789,86.914,-62.012,-13.672,39.551
1641936868.844,31.738,93.262,-10.742,6.836,35.156
1641936868.846,20.996,95.703,-65.430,23.926,32.227
1641936868.850,-16.602,90.332,-61.523,8.789,13.184
1641936868.854,-7.812,88.379,-8.789,0.000,20.020
1641936868.858,30.273,86.914,-1.465,0.000,26.367
1641936868.862,25.391,80.078,-104.004,15.137,12.207
1641936868.866,0.000,83.496,-175.781,20.020,72.266
1641936868.870,-7.324,89.355,-220.215,-8.789,38.086
1641936868.873,19.531,99.121,-98.145,6.836,-12.695
1641936868.877,41.992,92.285,-173.828,40.527,2.441
1641936868.881,27.344,92.285,-370.605,37.598,-4.883
1641936868.885,20.508,107.910,-24.414,20.996,27.344
1641936868.889,41.504,96.680,46.875,10.742,31.250
1641936868.891,64.453,91.309,-41.016,37.598,33.203
1641936868.895,50.781,95.215,88.379,51.758,46.387
1641936868.899,20.996,92.285,164.062,33.203,78.613
1641936868.903,15.625,86.914,47.363,27.832,76.172
1641936868.907,36.621,82.031,-88.379,51.758,54.688
1641936868.911,44.434,86.914,-66.406,74.219,60.059
1641936868.915,24.902,89.844,-62.012,56.641,39.062
1641936868.918,16.602,82.520,-91.309,41.992,5.859
1641936868.922,25.391,74.707,-391.602,57.129,-25.879
1641936868.926,41.016,100.586,-349.609,70.312,0.000
1641936868.930,28.320,102.051,36.621,72.754,36.621
1641936868.934,11.230,79.590,-50.293,57.129,55.664
1641936868.935,45.898,85.938,-64.453,60.547,46.875
1641936868.939,87.402,84.473,116.699,116.699,67.871
1641936868.943,72.266,78.613,153.320,129.395,99.121
1641936868.947,9.277,82.031,43.945,87.402,90.820
1641936868.951,-17.578,82.520,32.227,56.152,102.051
1641936868.955,-0.488,77.148,-77.148,77.148,63.477
1641936868.959,-3.906,84.961,-88.379,83.008,83.496
1641936868.962,-44.922,75.195,-254.883,44.922,77.148
1641936868.966,-30.273,83.984,-383.789,32.227,35.156
1641936868.970,23.926,103.516,-70.801,54.688,94.727
1641936868.974,28.809,89.355,-41.992,74.219,95.703
1641936868.978,13.184,87.891,-93.262,69.336,105.957
1641936868.980,1.465,95.215,-11.719,51.758,145.996
1641936868.984,34.180,95.215,142.090,52.734,136.230
1641936868.988,66.895,82.520,108.887,58.594,100.586
1641936868.992,48.828,73.242,-11.719,39.551,62.500
1641936868.996,32.715,68.848,16.113,14.160,67.383
1641936869.000,63.965,63.965,-79.102,18.066,56.152
1641936869.004,95.215,62.012,-218.262,48.828,4.883
1641936869.007,68.848,62.500,-354.492,60.547,-20.020
1641936869.011,47.363,84.961,-195.312,42.480,-4.395
1641936869.015,59.570,90.332,136.719,35.156,69.336
1641936869.019,60.059,66.895,34.668,49.805,73.242
1641936869.023,28.809,63.477,3.906,51.758,52.734
1641936869.026,-2.441,59.570,4.395,29.785,33.203
1641936869.030,0.977,61.523,-83.496,23.926,-7.324
1641936869.034,15.137,63.965,-148.926,44.434,11.230
1641936869.038,22.461,72.754,-134.277,63.477,8.789
1641936869.042,28.320,89.844,83.008,61.035,19.043
1641936869.046,31.250,79.590,-2.930,45.410,5.371
1641936869.050,59.570,71.777,-271.973,49.316,-67.383
1641936869.053,94.727,85.938,-280.762,70.312,-75.195
1641936869.057,92.773,98.633,95.215,70.312,-25.391
1641936869.061,84.473,81.543,141.113,48.340,-43.945
1641936869.065,107.422,79.590,-3.906,43.945,-59.570
1641936869.069,131.836,87.891,89.355,66.895,-41.016
1641936869.071,118.164,82.520,171.875,66.406,-14.160
1641936869.075,85.449,83.984,65.918,34.180,17.090
1641936869.079,83.984,86.914,-34.180,17.090,43.457
1641936869.083,100.098,83.008,-49.805,31.250,64.941
1641936869.087,86.914,84.473,-36.621,51.758,29.785
1641936869.091,50.781,82.520,-73.730,30.762,32.715
1641936869.095,23.926,67.871,-411.133,5.859,11.230
1641936869.098,37.598,81.543,-366.699,8.301,49.805
1641936869.102,50.293,106.445,138.184,21.973,108.398
1641936869.106,21.973,92.285,229.004,14.648,72.266
1641936869.110,9.766,82.520,202.148,-15.137,25.879
1641936869.114,31.250,94.238,405.273,-4.883,47.852
1641936869.130,45.898,101.074,544.922,12.695,57.129
1641936869.134,35.156,113.770,497.559,14.648,58.105
1641936869.138,25.879,129.883,490.234,30.273,34.668
1641936869.142,52.246,145.508,584.473,42.969,3.906
1641936869.146,91.797,154.785,622.559,71.289,5.371
1641936869.150,101.074,145.996,438.477,99.121,14.648
1641936869.154,98.145,150.879,306.152,90.820,3.418
1641936869.157,123.535,169.434,479.492,78.125,-15.137
1641936869.161,151.367,169.434,624.023,89.355,6.836
1641936869.165,139.160,162.109,548.340,107.910,-16.113
1641936869.169,111.328,172.852,566.895,85.449,-3.906
1641936869.173,104.492,177.246,728.516,59.570,28.809
1641936869.175,122.559,170.410,697.266,83.008,25.879
1641936869.179,119.629,172.363,642.578,95.703,3.418
1641936869.183,77.148,179.688,670.898,72.754,-23.926
1641936869.187,45.410,176.270,693.848,39.062,42.480
1641936869.191,52.246,165.527,590.332,32.715,39.551
1641936869.195,61.523,156.250,373.047,54.199,-7.812
1641936869.199,29.785,167.480,339.355,49.805,19.531
1641936869.202,-9.766,175.781,517.578,14.648,55.176
1641936869.206,-16.602,152.344,491.699,-13.184,49.316
1641936869.210,-13.184,131.836,62.500,-10.254,15.625
1641936869.214,-33.203,146.484,25.879,-14.648,-9.766
1641936869.218,-63.965,145.996,325.684,-51.758,4.395
1641936869.220,-68.359,128.906,249.512,-71.777,0.000
1641936869.224,-48.828,126.953,160.645,-64.941,-9.766
1641936869.228,-49.316,130.859,131.348,-57.617,-33.691
1641936869.232,-84.473,131.836,101.074,-78.125,-7.812
1641936869.236,-111.328,110.352,-93.262,-115.723,-6.836
1641936869.240,-98.145,93.750,-364.258,-120.605,-30.762
1641936869.244,-90.332,99.121,-431.152,-115.723,2.441
1641936869.247,-119.629,102.539,-375.977,-135.742,8.789
1641936869.251,-151.855,82.520,-634.766,-162.598,-3.418
1641936869.255,-133.789,79.590,-885.742,-164.551,15.625
1641936869.259,-101.562,86.426,-647.461,-139.160,40.039
1641936869.263,-119.141,67.871,-650.879,-134.277,11.230
1641936869.266,-139.648,63.477,-881.836,-155.762,5.859
1641936869.270,-127.441,70.312,-916.504,-167.969,-5.371
1641936869.274,-91.797,77.148,-680.176,-145.020,49.316
1641936869.278,-92.773,62.988,-642.090,-124.512,35.645
1641936869.282,-124.023,46.387,-727.539,-135.254,-0.977
1641936869.286,-115.723,43.457,-792.969,-138.184,-2.930
1641936869.290,-72.266,41.016,-746.582,-113.770,-11.719
1641936869.293,-52.734,33.203,-619.629,-83.984,35.645
1641936869.297,-65.430,20.996,-850.098,-76.660,36.621
1641936869.301,-46.875,32.227,-728.027,-81.055,21.484
1641936869.305,-8.789,28.809,-410.156,-55.664,18.066
1641936869.309,18.555,13.672,-499.023,-23.438,-34.180
1641936869.310,10.254,17.090,-476.074,-18.555,-24.414
1641936869.314,-6.348,27.344,-306.152,-30.273,25.391
1641936869.318,15.625,23.438,-353.516,-24.414,5.371
1641936869.322,41.016,21.973,-560.059,9.766,-38.574
1641936869.326,38.574,33.203,-471.191,30.762,-14.160
1641936869.330,19.531,25.879,-354.980,12.207,29.785
1641936869.334,31.738,27.344,-333.496,3.906,-19.531
1641936869.337,48.340,21.484,-404.297,27.832,-21.484
1641936869.341,38.086,16.602,-508.789,41.504,-11.719
1641936869.345,27.344,29.297,-180.176,37.598,17.578
1641936869.349,23.438,21.973,-84.473,30.273,71.777
1641936869.353,53.711,24.414,-184.570,38.574,17.090
1641936869.356,66.406,37.598,-157.715,53.711,-4.395
1641936869.360,35.645,35.645,-50.293,54.199,18.066
1641936869.364,15.625,16.602,-99.121,39.062,5.859
1641936869.368,39.551,18.555,-163.086,49.805,40.527
1641936869.372,67.871,31.250,-33.203,74.219,44.922
1641936869.376,55.176,31.250,-82.520,78.613,18.066
1641936869.380,46.387,27.832,-235.352,71.777,1.465
1641936869.383,65.918,23.438,-518.066,72.266,-12.695
1641936869.387,99.121,49.316,-453.613,100.098,-47.363
1641936869.391,105.469,65.430,16.113,115.723,13.672
1641936869.395,76.172,47.852,-45.898,97.168,52.734
1641936869.399,76.660,48.828,-138.672,94.727,19.531
1641936869.430,104.492,54.199,43.457,109.863,41.992
1641936869.434,100.098,49.316,74.219,121.094,49.316
1641936869.438,63.477,39.062,-35.645,97.168,0.000
1641936869.442,54.199,37.109,-64.453,73.242,18.066
1641936869.446,75.684,45.898,29.785,92.285,43.457
1641936869.450,81.055,44.922,-8.789,110.352,29.785
1641936869.454,45.898,32.715,-267.578,100.586,31.738
1641936869.457,28.809,35.645,-291.504,73.242,50.781
1641936869.461,63.965,43.457,-33.203,77.637,47.852
1641936869.465,84.473,38.574,41.016,112.305,27.344
1641936869.469,61.523,39.062,-65.430,107.910,57.129
1641936869.473,42.480,43.945,-78.613,82.031,49.805
1641936869.460,62.988,55.176,125.488,68.359,52.246
1641936869.464,77.637,44.434,109.863,72.754,52.246
1641936869.468,62.500,32.715,91.797,88.867,58.105
1641936869.472,39.551,41.016,170.410,74.219,53.223
1641936869.476,33.691,39.062,113.770,61.035,10.742
1641936869.480,57.617,29.297,-49.805,80.566,42.480
1641936869.484,63.477,33.203,-165.039,93.262,70.312
1641936869.487,48.828,43.945,-38.086,79.102,60.059
1641936869.491,54.199,40.527,77.148,57.129,55.176
1641936869.495,76.172,27.832,-77.148,63.477,19.531
1641936869.499,86.426,31.738,-178.223,81.543,-1.465
1641936869.503,64.453,41.504,-38.574,82.031,-2.930
1641936869.491,43.945,39.062,91.309,60.547,26.855
1641936869.495,55.176,22.949,-54.688,54.199,19.043
1641936869.499,73.730,21.484,-387.695,60.547,-43.457
1641936869.503,71.289,51.270,-186.523,41.504,-21.484
1641936869.507,56.641,55.176,128.906,28.809,59.082
1641936869.511,60.059,38.574,-68.848,24.902,29.297
1641936869.515,75.684,40.039,-137.207,33.691,-11.230
1641936869.518,62.988,47.852,62.500,51.270,-0.977
1641936869.522,24.414,49.805,177.734,39.551,30.273
1641936869.526,2.441,33.691,-108.398,16.113,42.969
1641936869.530,22.949,42.480,-260.742,26.367,8.301
1641936869.534,38.574,59.570,97.656,41.016,10.254
1641936869.551,4.395,41.992,135.254,23.926,-16.602
1641936869.555,-14.160,33.691,-76.660,-1.953,-5.371
1641936869.559,16.602,46.387,-163.574,-10.742,6.836
1641936869.563,43.457,59.082,-16.113,14.648,27.832
1641936869.567,27.832,46.875,58.594,32.227,47.852
1641936869.571,8.301,29.785,-330.078,12.207,3.906
1641936869.575,38.086,48.340,-385.742,11.230,-8.789
1641936869.578,67.871,59.570,1.953,37.109,-11.230
1641936869.582,42.969,49.316,32.715,50.293,1.465
1641936869.586,15.137,50.293,-21.484,35.156,28.809
1641936869.590,23.438,50.781,25.879,20.508,17.578
1641936869.594,39.551,53.223,116.211,36.133,23.438
1641936869.595,20.996,52.734,65.430,50.293,15.137
1641936869.599,-18.066,60.547,17.578,26.855,5.859
1641936869.603,-33.691,69.824,128.418,3.906,37.109
1641936869.607,-22.949,66.895,167.480,12.695,65.918
1641936869.611,-23.438,62.500,78.125,22.461,45.898
1641936869.615,-50.781,63.477,-27.344,13.184,-6.836
1641936869.619,-68.359,63.965,-40.527,-9.766,24.414
1641936869.622,-42.480,63.477,92.773,-9.277,107.910
1641936869.626,-11.719,53.711,-33.203,16.602,82.520
1641936869.630,-10.742,53.711,-335.938,17.578,7.324
1641936869.634,-5.371,71.777,-77.637,5.371,39.551
1641936869.638,25.391,61.523,79.102,7.812,66.406
1641936869.641,68.359,53.711,-37.598,31.250,25.879
1641936869.645,73.730,59.082,-33.203,38.574,-1.465
1641936869.649,62.012,57.129,-29.297,16.113,15.137
1641936869.653,76.660,52.246,-125.977,11.719,7.812
1641936869.657,104.492,47.852,-221.680,27.344,0.488
1641936869.661,106.445,50.293,-294.434,46.387,41.992
1641936869.665,70.312,51.758,-281.250,24.414,64.453
1641936869.668,47.852,41.504,-291.016,-1.953,28.320
1641936869.672,43.945,24.902,-645.508,16.113,-16.113
1641936869.676,51.270,44.922,-553.711,36.621,-11.719
1641936869.680,34.180,60.547,-143.066,34.180,0.000
1641936869.684,2.930,47.363,-226.074,8.789,19.043
1641936869.685,7.324,45.898,-246.582,9.277,14.648
1641936869.689,16.113,56.641,-33.203,37.109,29.785
1641936869.693,0.488,55.664,76.172,40.527,100.586
1641936869.697,-20.508,47.363,-34.668,25.879,86.914
1641936869.701,-13.184,45.898,-64.453,12.207,54.688
1641936869.705,11.719,45.410,-106.934,25.391,35.645
1641936869.709,16.602,50.293,-97.656,57.617,79.102
1641936869.712,-4.395,37.598,-227.539,45.410,58.105
1641936869.716,4.883,46.875,-365.234,22.949,-23.926
1641936869.720,51.758,69.824,4.883,29.785,-1.465
1641936869.724,61.035,62.012,56.152,49.316,32.227
1641936869.728,37.109,63.477,-104.004,35.645,6.348
1641936869.730,31.738,67.383,-11.719,4.883,27.832
1641936869.734,57.617,60.059,132.324,19.043,90.820
1641936869.738,61.523,48.828,105.469,38.086,76.660
1641936869.742,22.949,42.969,19.531,33.203,55.664
1641936869.746,3.418,41.016,18.066,20.508,61.523
1641936869.750,21.484,39.551,-42.969,26.367,57.129
1641936869.754,35.156,45.410,-96.680,47.852,40.527
1641936869.757,17.578,49.316,-249.512,49.316,32.227
1641936869.761,-7.324,57.617,-167.969,32.227,55.664
1641936869.765,-0.977,54.199,91.309,25.391,57.617
1641936869.769,20.508,47.852,20.996,41.504,56.152
1641936869.773,18.555,54.688,37.109,58.594,81.055
1641936869.776,-3.418,46.875,79.590,48.340,30.762
1641936869.780,4.395,38.574,15.137,37.598,0.000
1641936869.784,46.387,41.992,-92.773,58.594,12.695
1641936869.788,63.965,46.875,-95.215,87.891,-10.742
1641936869.792,40.039,58.594,154.297,86.426,56.641
1641936869.796,9.766,45.898,55.176,57.129,94.238
1641936869.800,5.371,30.273,-224.121,55.176,37.598
1641936869.803,3.418,39.062,-221.191,70.801,41.016
1641936869.807,-13.184,49.316,99.609,59.570,78.125
1641936869.811,-26.367,36.621,161.621,31.250,82.031
1641936869.815,-9.277,33.691,66.406,15.625,57.129
1641936869.819,19.043,35.645,143.066,30.762,64.453
1641936869.821,11.230,33.203,263.184,48.828,80.078
1641936869.825,-16.602,28.320,227.051,38.086,82.520
1641936869.829,0.977,29.785,72.754,27.832,52.734
1641936869.833,46.387,42.969,42.480,52.734,76.660
1641936869.837,62.988,40.527,73.242,77.637,109.375
1641936869.841,45.410,30.273,51.758,61.035,48.340
1641936869.845,35.645,23.438,-306.152,31.250,-10.254
1641936869.848,61.035,43.457,-350.586,32.715,-5.371
1641936869.852,58.105,54.199,91.309,52.246,38.086
1641936869.856,12.695,38.574,67.871,47.852,32.227
1641936869.860,-16.113,51.758,-10.254,25.879,36.133
1641936869.864,-8.301,59.570,122.559,20.020,38.086
1641936869.880,-1.465,45.410,144.043,31.250,19.043
1641936869.884,-25.391,36.133,59.570,22.949,36.133
1641936869.888,-39.062,45.898,23.926,2.930,20.020
1641936869.892,-13.672,48.340,99.609,-3.418,45.410
1641936869.896,29.297,41.016,111.328,20.508,57.617
1641936869.900,28.809,37.109,-143.066,34.668,-22.461
1641936869.904,6.348,47.852,-318.359,16.602,-11.719
1641936869.907,34.180,62.012,-80.566,20.996,46.875
1641936869.911,70.801,60.059,201.660,35.645,61.523
1641936869.915,74.707,41.016,19.043,46.387,21.484
1641936869.919,61.523,34.668,-104.492,28.320,14.648
1641936869.923,72.266,45.410,209.961,11.230,85.449
1641936869.925,100.098,40.039,230.469,24.902,93.262
1641936869.929,105.469,35.645,104.004,34.180,36.133
1641936869.933,87.402,38.086,112.305,32.715,24.414
1641936869.937,58.594,41.992,150.391,0.488,35.645
1641936869.941,57.617,39.551,83.496,-5.371,27.832
1641936869.945,61.035,35.156,-29.297,24.414,4.883
1641936869.949,29.297,42.480,-77.148,20.996,21.484
1641936869.952,6.348,54.199,52.246,4.395,54.199
1641936869.956,1.465,46.875,122.559,-3.906,61.035
1641936869.960,2.930,26.367,-303.711,5.859,32.715
1641936869.964,9.766,47.363,-251.465,22.949,-5.859
1641936869.968,-1.465,56.152,152.832,12.207,11.230
1641936869.970,1.465,42.480,50.293,0.488,14.160
1641936869.974,31.738,49.316,52.246,5.371,28.320
1641936869.978,41.504,54.199,186.523,25.391,61.523
1641936869.982,24.902,52.246,196.777,28.320,62.988
1641936869.986,18.066,47.363,62.012,4.395,15.625
1641936869.990,49.805,45.410,-62.012,13.672,-33.691
1641936869.994,77.148,48.340,-87.891,28.320,-31.250
1641936869.997,70.312,59.082,36.621,18.555,-23.926
1641936870.001,46.387,49.805,-95.215,4.883,-40.527
1641936870.005,56.152,55.664,-259.766,1.953,-78.125
1641936870.009,84.961,75.195,98.145,27.344,-47.363
1641936870.013,62.988,58.594,191.895,32.715,-23.926
1641936870.016,33.203,49.316,47.852,12.695,-45.410
1641936870.020,34.668,49.316,55.176,9.766,-10.254
1641936870.024,42.969,53.223,196.289,27.344,72.754
1641936870.028,33.203,50.781,200.684,41.016,65.918
1641936870.032,0.000,46.875,-19.043,18.555,27.832
1641936870.036,-13.672,52.734,-70.801,3.418,47.852
1641936870.040,9.766,58.594,15.625,18.555,59.570
1641936870.043,13.672,55.176,55.664,34.668,44.922
1641936870.047,-14.160,44.922,-159.668,21.484,10.742
1641936870.051,-6.348,61.035,-113.770,3.906,22.461
1641936870.055,29.297,59.082,138.184,20.020,42.969
1641936870.059,46.387,43.457,74.707,41.504,28.320
1641936870.060,38.574,46.387,53.223,46.387,12.695
1641936870.064,28.320,50.293,175.781,32.715,47.363
1641936870.068,44.434,39.551,128.418,22.949,44.434
1641936870.072,63.477,35.156,-119.629,38.086,20.020
1641936870.076,58.105,49.316,-56.152,43.945,14.648
1641936870.080,41.016,45.410,14.160,28.320,7.324
1641936870.084,45.898,45.410,-8.301,19.043,7.324
1641936870.087,58.594,35.156,-99.609,26.367,-14.648
1641936870.091,55.176,36.133,-198.242,41.992,4.395
1641936870.095,50.293,61.523,151.855,44.922,41.016
1641936870.099,41.992,53.711,208.984,29.297,42.480
1641936870.103,58.594,58.105,113.770,34.180,74.219
1641936870.106,64.941,56.641,189.453,57.129,85.449
1641936870.110,23.438,44.922,279.297,51.758,121.582
1641936870.114,-2.930,29.785,186.035,24.902,115.234
1641936870.118,12.695,22.461,86.426,28.809,71.289
1641936870.122,31.250,28.809,171.875,49.805,58.594
1641936870.126,11.719,13.184,88.379,44.434,31.738
1641936870.130,-17.578,-2.441,-41.016,33.203,41.016
1641936870.133,-7.812,-13.184,-327.148,30.273,33.691
1641936870.137,32.227,4.395,-259.277,52.734,17.090
1641936870.141,38.574,16.602,136.230,66.895,32.715
1641936870.145,5.859,6.836,45.410,41.992,26.855
1641936870.149,4.395,9.766,4.395,25.879,6.836
1641936870.166,34.668,20.020,207.031,37.109,22.949
1641936870.170,34.668,20.020,315.430,52.246,28.809
1641936870.174,6.836,22.949,307.617,36.621,11.719
1641936870.178,14.160,30.273,375.977,31.250,39.062
1641936870.182,44.434,27.832,519.531,49.805,63.477
1641936870.186,52.246,34.180,536.621,61.035,43.457
1641936870.190,23.926,37.109,406.738,61.523,31.738
1641936870.193,15.137,42.969,394.531,49.805,31.250
1641936870.197,39.551,66.895,597.168,50.293,50.781
1641936870.201,62.988,81.055,723.633,79.102,42.480
1641936870.205,54.199,74.219,631.836,89.355,22.461
1641936870.209,29.785,82.031,566.895,74.219,27.832
1641936870.195,50.781,103.027,706.543,65.918,-4.395
1641936870.199,81.055,98.145,720.215,92.773,-22.949
1641936870.203,71.777,97.168,664.551,120.605,5.859
1641936870.207,43.945,107.422,680.176,94.727,-4.883
1641936870.211,37.598,107.910,739.258,59.570,14.648
1641936870.215,41.992,104.004,616.699,54.199,42.969
1641936870.219,43.945,109.375,563.477,70.312,44.434
1641936870.222,34.668,117.188,764.160,77.148,47.852
1641936870.226,21.973,113.281,867.188,62.988,36.621
1641936870.230,33.203,102.051,714.355,66.406,17.090
1641936870.234,32.715,103.516,493.164,68.359,20.020
1641936870.238,12.207,122.559,607.422,48.340,50.781
1641936870.241,-6.348,123.047,735.352,20.996,39.551
1641936870.245,-17.578,98.633,506.348,-4.883,27.344
1641936870.249,-5.859,90.332,392.090,3.906,11.230
1641936870.253,-6.348,107.422,555.664,-3.906,29.785
1641936870.257,-31.738,104.492,556.641,-39.062,80.566
1641936870.261,-44.922,79.102,176.270,-57.129,67.871
1641936870.265,-33.691,84.961,-64.453,-55.664,55.664
1641936870.268,-47.852,106.445,200.684,-53.711,112.305
1641936870.272,-98.145,94.727,220.215,-89.844,113.281
1641936870.276,-122.070,83.496,-112.793,-122.070,71.289
1641936870.280,-113.281,86.914,-239.258,-124.512,49.805
1641936870.284,-110.352,85.449,-157.715,-114.746,56.641
1641936870.301,-144.043,74.219,-265.625,-131.836,75.195
1641936870.305,-172.363,58.105,-564.941,-167.480,83.984
1641936870.309,-150.879,61.523,-735.840,-167.480,78.125
1641936870.313,-137.207,64.941,-593.262,-145.508,99.609
1641936870.317,-166.992,45.898,-678.711,-143.555,93.262
1641936870.321,-191.895,33.691,-917.969,-161.621,14.648
1641936870.325,-172.363,42.969,-1000.000,-171.875,-1.953
1641936870.328,-123.047,49.316,-798.828,-146.484,52.246
1641936870.332,-110.840,35.156,-673.828,-117.188,65.918
1641936870.336,-122.070,30.273,-891.602,-117.676,-4.395
1641936870.340,-93.262,40.039,-723.145,-107.910,3.906
1641936870.344,-58.594,29.785,-519.531,-70.312,54.199
1641936870.345,-51.758,16.602,-676.758,-38.086,33.203
1641936870.349,-63.477,19.531,-717.773,-37.598,41.504
1641936870.353,-52.246,22.461,-590.332,-49.805,63.477
1641936870.357,-14.648,20.508,-530.273,-41.016,44.922
1641936870.361,-1.465,18.555,-504.395,-21.973,45.898
1641936870.365,-20.508,14.160,-601.562,-22.949,46.387
1641936870.369,-31.738,21.484,-587.891,-34.668,41.992
1641936870.372,-16.113,27.832,-360.352,-31.738,50.293
1641936870.376,-0.488,10.254,-490.234,-12.207,22.461
1641936870.380,-2.441,12.207,-737.305,-8.789,5.371
1641936870.384,7.324,31.250,-412.598,-16.602,32.227
1641936870.388,35.645,20.020,-219.727,-9.766,22.949
1641936870.391,60.547,18.555,-250.000,15.137,32.715
1641936870.395,54.199,23.438,-143.555,38.574,48.340
1641936870.399,27.344,22.949,-118.164,30.273,38.086
1641936870.403,17.578,19.531,-245.117,16.113,56.152
1641936870.407,32.715,21.484,-322.266,26.367,29.297
1641936870.411,32.715,25.879,-368.652,36.133,-8.301
1641936870.415,9.277,23.438,-375.000,17.578,23.438
1641936870.418,5.859,17.578,-342.773,-5.859,41.016
1641936870.422,25.391,4.395,-636.719,-5.859,22.461
1641936870.426,44.434,22.461,-567.871,0.977,41.016
1641936870.430,37.109,31.738,-91.797,3.906,45.898
1641936870.434,16.602,15.137,-149.414,-15.625,-20.020
1641936870.435,39.062,18.066,-126.465,-11.719,19.531
1641936870.439,76.172,21.484,36.621,27.344,49.805
1641936870.443,68.848,27.344,37.109,43.945,53.711
1641936870.447,49.316,26.367,-34.668,35.156,85.449
1641936870.451,56.152,25.391,-26.367,24.902,94.727
1641936870.455,64.941,30.762,-52.246,39.062,75.684
1641936870.459,54.199,33.691,-41.016,61.035,48.828
1641936870.462,22.949,17.090,-94.727,62.988,54.688
1641936870.466,11.230,16.602,-245.605,51.758,40.527
1641936870.470,34.668,38.574,48.828,54.199,28.809
1641936870.474,24.902,26.855,128.418,71.289,27.832
1641936870.478,-9.766,23.926,-39.062,70.801,-6.348
1641936870.480,-17.090,37.598,25.879,48.340,-26.367
1641936870.484,18.555,37.109,187.988,62.988,46.387
1641936870.488,47.852,27.344,160.645,86.426,67.383
1641936870.492,40.039,37.598,144.531,79.590,51.270
1641936870.496,40.527,45.410,187.012,69.824,-3.906
1641936870.500,72.754,35.645,34.668,69.336,-17.578
1641936870.504,111.816,33.691,-119.629,94.727,4.883
1641936870.507,118.652,37.598,-268.555,97.168,-4.883
1641936870.511,122.070,56.152,-139.648,77.637,-13.672
1641936870.515,147.949,48.828,101.562,76.660,8.301
1641936870.519,169.922,33.691,27.344,86.426,52.734
1641936870.523,157.715,44.922,17.578,97.168,38.574
1641936870.526,123.047,44.922,62.988,70.312,22.949
1641936870.530,106.445,49.805,28.320,48.828,46.875
1641936870.534,107.422,50.293,-154.297,61.523,54.688
1641936870.538,98.145,56.641,-182.129,75.684,56.641
1641936870.542,72.266,67.871,32.715,78.125,57.617
1641936870.546,41.504,59.570,-60.059,54.199,74.219
1641936870.550,39.062,48.828,-338.379,60.059,62.500
1641936870.553,50.781,51.270,-418.457,85.449,-9.277
1641936870.557,35.645,65.430,-160.156,83.984,-30.273
1641936870.561,7.812,62.988,-34.180,67.383,-36.621
1641936870.565,14.648,57.617,-84.473,52.246,-25.391
1641936870.569,34.180,62.988,-80.566,74.219,-27.832
1641936870.570,34.668,71.289,79.102,93.262,-8.789
1641936870.574,15.137,62.500,52.734,69.824,9.766
1641936870.578,21.973,57.129,-35.645,51.270,1.465
1641936870.582,60.059,62.012,51.270,59.570,9.277
1641936870.586,72.754,56.641,43.945,86.914,27.832
1641936870.590,61.523,47.363,-62.500,92.773,74.219
1641936870.594,63.965,45.410,-379.883,75.195,83.984
1641936870.597,86.426,65.430,-398.926,68.359,51.758
1641936870.601,104.004,79.102,55.664,84.473,74.219
1641936870.605,78.613,60.059,122.070,88.867,106.445
1641936870.609,46.387,52.246,-0.488,68.359,94.238
1641936870.613,58.594,59.570,42.969,72.266,95.703
1641936870.630,84.961,64.941,108.398,94.238,83.984
1641936870.634,63.965,69.824,41.504,97.656,89.355
1641936870.638,23.926,72.754,-40.039,81.543,81.055
1641936870.642,22.461,72.754,19.043,76.172,63.965
1641936870.646,45.410,74.707,81.543,90.332,81.055
1641936870.650,36.133,59.082,-148.438,100.098,67.871
1641936870.654,5.371,61.035,-329.102,90.332,48.828
1641936870.657,14.648,75.195,-112.793,77.148,52.734
1641936870.661,49.805,66.895,62.500,90.820,60.059
1641936870.665,58.105,68.359,2.930,113.770,57.129
1641936870.669,49.316,83.008,8.789,113.770,78.613
1641936870.673,43.945,83.984,131.348,92.285,113.281
1641936870.675,52.734,71.777,132.812,90.820,72.754
1641936870.679,47.852,57.129,-125.000,113.770,25.391
1641936870.683,11.230,70.312,-116.699,108.887,30.273
1641936870.687,-17.090,82.031,187.500,85.449,95.215
1641936870.691,-2.930,65.918,82.031,71.289,87.891
1641936870.695,23.438,65.918,-63.477,76.660,42.480
1641936870.699,26.855,70.801,-102.539,75.684,19.043
1641936870.702,19.531,74.219,41.016,56.641,45.410
1641936870.706,36.133,66.406,92.773,45.898,69.824
1641936870.710,67.383,51.758,-345.215,70.801,37.598
1641936870.714,81.543,72.266,-305.176,107.422,62.500
1641936870.718,76.172,89.355,93.262,101.562,70.312
1641936870.721,75.195,80.078,16.602,86.426,69.336
1641936870.725,99.121,76.660,-5.859,88.379,57.617
1641936870.729,102.051,77.148,104.492,85.449,30.273
1641936870.733,54.688,76.172,111.816,73.242,36.133
1641936870.737,24.902,69.336,-6.348,44.434,33.691
1641936870.741,34.668,66.406,-130.859,37.598,48.340
1641936870.745,31.738,71.289,-141.113,40.039,59.570
1641936870.748,9.277,75.195,-60.059,33.203,65.430
1641936870.752,-23.926,59.570,-284.180,20.508,49.805
1641936870.756,-18.555,58.594,-406.250,13.184,21.484
1641936870.760,15.137,73.730,6.348,33.203,62.988
1641936870.764,8.789,59.082,85.449,30.273,63.477
1641936870.765,5.371,55.664,-40.527,4.395,32.715
1641936870.769,36.133,56.641,-43.945,-1.953,20.508
1641936870.773,76.172,56.641,66.406,18.066,65.430
1641936870.777,89.844,43.457,61.035,32.715,80.566
1641936870.781,80.078,32.227,-112.305,16.113,26.855
1641936870.785,86.426,41.992,-141.602,6.836,4.395
1641936870.789,121.582,48.828,-85.449,28.809,19.043
1641936870.792,139.648,44.922,1.953,52.246,30.762
1641936870.796,113.281,41.992,-188.477,46.875,-11.719
1641936870.800,113.770,64.941,-159.668,21.484,-21.484
1641936870.804,138.184,59.570,98.633,20.996,12.695
1641936870.808,127.930,50.781,88.379,32.227,25.391
1641936870.810,97.168,57.617,68.359,24.414,55.176
1641936870.814,68.848,57.617,89.355,-0.488,81.543
1641936870.818,63.477,52.734,19.531,-28.809,46.387
1641936870.822,66.406,51.758,-169.922,-9.277,-9.277
1641936870.826,54.199,59.082,-74.707,11.230,24.902
1641936870.830,22.949,57.129,26.367,-10.254,49.805
1641936870.834,17.578,56.152,-110.352,-24.414,-6.836
1641936870.837,39.551,50.781,-196.777,-19.531,-5.371
1641936870.841,39.551,53.711,-132.324,-8.789,6.836
1641936870.845,13.672,72.266,123.047,-7.324,18.555
1641936870.849,10.254,62.500,157.227,-20.020,8.789
1641936870.853,43.457,51.758,-59.570,-9.277,-13.672
1641936870.856,62.012,62.988,-64.453,11.230,-18.066
1641936870.860,39.062,60.547,153.320,14.648,-16.113
1641936870.864,21.973,50.293,94.238,0.977,-43.457
1641936870.868,48.828,57.617,28.809,5.371,-51.758
1641936870.872,71.777,61.035,171.387,29.297,-27.344
1641936870.876,52.734,57.129,110.352,31.250,-39.062
1641936870.880,25.391,51.270,0.000,20.996,-22.949
1641936870.883,27.832,49.805,-235.840,19.043,-19.531
1641936870.887,50.781,78.125,-198.242,33.691,-12.207
1641936870.891,50.293,90.820,169.922,48.828,31.738
1641936870.895,17.578,72.754,111.328,33.691,27.344
1641936870.899,20.020,61.035,15.137,21.973,7.812
1641936870.915,60.059,66.406,90.820,39.062,23.926
1641936870.919,72.266,72.754,127.441,52.734,-18.555
1641936870.923,42.480,76.172,79.102,42.969,-5.371
1641936870.927,24.902,76.172,29.785,19.043,23.926
1641936870.931,56.641,75.684,138.184,35.645,39.062
1641936870.935,70.312,74.219,121.582,65.430,28.809
1641936870.939,25.879,68.359,-166.992,63.477,-9.766
1641936870.942,-4.395,77.637,-230.957,40.527,7.812
1641936870.946,23.926,92.285,-46.387,28.320,7.812
1641936870.950,63.965,85.938,-11.230,43.945,-38.086
1641936870.954,68.848,77.148,-82.031,39.551,-24.414
1641936870.958,68.848,73.730,-142.578,12.695,17.578
1641936870.946,123.535,80.566,-84.961,12.207,12.207
1641936870.950,220.703,73.730,-91.309,32.227,-3.906
1641936870.954,278.320,65.430,-162.598,28.809,-4.395
1641936870.958,284.180,69.336,-201.172,-21.973,-29.297
1641936870.962,289.062,69.336,-309.570,-77.637,-129.883
1641936870.966,275.879,62.988,-532.715,-105.957,-180.664
1641936870.970,286.621,71.289,-628.906,-122.559,-189.453
1641936870.973,306.641,77.148,-433.594,-148.438,-230.469
1641936870.977,323.730,69.336,-282.227,-185.547,-231.445
1641936870.981,306.152,64.941,-232.910,-226.074,-268.555
1641936870.985,206.543,67.871,-234.863,-253.906,-334.961
1641936870.989,154.297,88.867,95.215,-255.371,-367.188
1641936870.991,114.746,93.262,552.246,-291.992,-411.621
1641936870.995,9.766,79.102,645.508,-329.590,-483.887
1641936870.999,-52.734,81.543,781.250,-287.598,-502.930
1641936871.003,-136.719,92.773,-984.863,-261.230,-493.652
1641936871.007,-209.961,85.449,996.582,-277.832,-492.188
1641936871.011,-233.398,64.453,995.117,-233.398,-504.883
1641936871.015,-245.117,72.266,-1000.000,-152.832,-527.344
1641936871.018,-207.031,94.727,999.512,-122.070,-492.188
1641936871.022,-208.984,88.379,999.512,-134.277,-475.098
1641936871.026,-179.688,78.613,999.512,-67.871,-495.117
1641936871.030,-122.070,81.055,999.512,81.055,-502.441
1641936871.034,-106.445,83.008,997.070,154.297,-512.207
1641936871.051,-76.172,79.590,999.023,125.000,-487.305
1641936871.055,-33.691,71.289,986.328,76.172,-466.797
1641936871.059,19.531,73.242,872.070,47.363,-476.074
1641936871.063,57.617,76.172,782.227,64.941,-494.629
1641936871.067,48.828,75.195,683.105,75.684,-501.465
1641936871.071,51.270,74.219,336.426,36.133,-473.145
1641936871.075,59.570,81.055,145.996,-5.371,-392.090
1641936871.078,56.152,88.379,221.191,12.207,-382.324
1641936871.082,23.926,73.242,105.469,40.527,-404.297
1641936871.086,-14.160,66.895,-223.633,44.922,-391.113
1641936871.090,-18.555,79.590,-231.445,63.477,-399.902
1641936871.094,-20.996,77.148,-74.707,97.656,-348.633
1641936871.095,-35.156,80.078,-117.676,104.004,-285.156
1641936871.099,-66.895,78.613,-199.219,57.617,-261.719
1641936871.103,-106.445,63.477,-193.359,39.551,-252.930
1641936871.107,-108.887,57.129,-158.203,85.938,-228.516
1641936871.111,-101.562,52.246,-196.777,116.211,-186.035
1641936871.115,-107.422,47.852,-322.266,142.090,-172.363
1641936871.119,-99.121,56.641,-356.934,143.555,-150.391
1641936871.122,-78.613,65.430,-374.023,159.668,-122.070
1641936871.126,-48.828,62.988,-555.176,219.727,-84.961
1641936871.130,-43.945,77.637,-687.012,237.793,-64.941
1641936871.134,-36.621,93.750,-358.887,203.125,-19.043
1641936871.138,-6.348,79.102,-141.602,206.055,34.180
1641936871.140,30.762,72.754,-284.180,250.488,11.719
1641936871.144,48.340,74.219,-304.199,326.172,50.781
1641936871.148,50.781,78.613,-178.223,366.699,87.891
1641936871.152,88.867,76.172,-191.895,345.215,98.145
1641936871.156,127.441,70.801,-266.602,358.887,135.742
1641936871.160,132.324,66.406,-374.023,362.793,150.391
1641936871.164,125.488,67.383,-326.172,320.312,177.734
1641936871.167,125.488,59.082,-267.090,290.039,172.852
1641936871.171,124.512,39.062,-678.223,319.336,117.676
1641936871.175,140.137,62.012,-704.590,351.074,128.418
1641936871.179,141.113,82.031,-305.664,364.746,191.895
1641936871.183,115.234,70.801,-273.438,383.301,287.598
1641936871.185,111.328,66.406,-322.266,425.781,280.762
1641936871.189,106.934,75.195,-123.535,485.352,275.391
1641936871.193,46.875,71.289,0.488,503.906,301.270
1641936871.197,-29.297,73.242,-133.789,463.867,285.645
1641936871.201,-50.293,81.543,-124.512,446.289,331.543
1641936871.205,-80.078,71.289,-121.094,457.520,374.512
1641936871.209,-145.996,70.312,-206.055,488.770,364.258
1641936871.212,-231.934,62.988,-370.605,485.352,359.375
1641936871.216,-237.305,59.082,-465.820,409.180,390.625
1641936871.220,-166.016,70.312,-145.508,375.000,430.664
1641936871.224,-168.945,62.500,-115.723,349.609,427.246
1641936871.228,-175.781,68.359,-346.680,323.730,446.777
1641936871.228,-175.781,68.359,-346.680,323.730,446.777
1641936871.230,-161.133,83.008,-331.543,340.332,488.770
1641936871.234,-115.234,82.520,-265.625,348.633,538.086
1641936871.238,-31.738,79.590,-316.406,347.656,581.543
1641936871.242,14.648,71.289,-405.762,352.539,580.566
1641936871.246,52.246,68.848,-377.930,339.355,596.191
1641936871.250,177.246,72.266,-395.996,330.078,618.164
1641936871.254,349.121,72.266,-447.266,295.898,624.512
1641936871.257,407.227,63.477,-565.430,261.230,599.121
1641936871.261,382.324,78.613,-385.254,328.613,617.188
1641936871.265,385.254,83.984,-22.461,386.719,657.227
1641936871.269,398.926,66.406,-18.555,423.340,620.605
1641936871.273,348.633,64.941,-0.488,459.473,607.422
1641936871.276,293.945,74.707,158.691,395.508,672.363
1641936871.280,279.297,76.172,228.516,259.766,675.293
1641936871.284,230.469,71.777,163.086,167.969,625.000
1641936871.288,174.805,79.102,326.172,212.402,665.039
1641936871.292,121.094,83.496,627.441,301.270,729.980
1641936871.296,44.922,74.707,572.266,344.238,739.746
1641936871.300,2.441,75.195,337.891,328.125,708.496
1641936871.303,-33.691,85.938,291.992,294.922,699.219
1641936871.307,-70.312,102.051,659.180,285.156,768.555
1641936871.311,-65.918,95.215,833.496,253.418,779.297
1641936871.315,-25.391,94.238,748.047,224.121,781.250
1641936871.319,45.898,96.191,767.578,259.766,773.926
1641936871.321,63.965,88.379,863.281,234.863,739.746
1641936871.325,44.434,78.125,831.055,175.293,736.328
1641936871.329,74.219,79.102,813.477,87.891,785.156
1641936871.333,124.512,88.867,902.832,14.160,773.438
1641936871.337,145.996,88.867,907.227,91.797,722.168
1641936871.341,135.254,84.961,897.949,172.363,775.391
1641936871.345,110.352,85.938,716.309,220.215,835.938
1641936871.348,93.750,97.656,737.305,312.500,830.566
1641936871.352,74.707,109.863,-985.352,360.352,874.512
1641936871.356,20.020,103.027,-1000.000,385.254,928.711
1641936871.360,-19.531,91.797,992.676,408.203,949.219
1641936871.364,-43.945,96.680,-999.023,452.148,942.871
1641936871.380,-70.801,96.191,999.512,504.395,972.656
1641936871.384,-116.211,79.102,999.512,467.773,979.004
1641936871.388,-195.801,72.266,999.512,372.070,977.051
1641936871.392,-254.395,74.707,999.512,327.637,985.840
1641936871.396,-267.090,74.219,999.512,345.703,954.590
1641936871.400,-314.453,60.547,999.512,351.074,951.172
1641936871.404,-378.906,74.219,999.512,348.633,982.422
1641936871.407,-381.836,88.867,999.512,319.336,996.094
1641936871.411,-362.305,95.215,999.512,301.270,996.094
1641936871.415,-393.555,73.242,999.512,252.441,999.512
1641936871.419,-451.660,70.312,999.512,143.555,999.023
1641936871.423,-432.617,90.332,999.512,132.812,999.512
1641936871.425,-359.375,78.613,999.512,192.383,999.512
1641936871.429,-309.570,84.961,999.512,262.207,999.512
1641936871.433,-268.555,94.238,999.512,371.094,999.512
1641936871.437,-252.930,91.309,999.512,452.637,999.512
1641936871.441,-234.375,95.215,999.512,498.047,999.512
1641936871.445,-189.453,95.215,999.512,511.719,999.512
1641936871.449,-180.176,97.656,999.512,488.281,999.512
1641936871.452,-162.598,105.469,999.512,402.832,999.512
1641936871.456,-107.422,100.586,999.512,341.797,999.512
1641936871.460,-55.176,91.309,999.512,401.367,999.512
1641936871.464,-28.320,114.258,999.512,452.637,999.512
1641936871.468,-11.230,127.930,999.512,346.191,999.512
1641936871.471,11.230,120.117,999.512,188.965,999.512
1641936871.475,55.664,119.141,999.512,175.293,999.512
1641936871.479,99.609,123.535,999.512,206.055,999.512
1641936871.483,74.219,123.047,999.512,151.855,999.512
1641936871.487,35.645,124.512,999.512,146.484,999.512
1641936871.491,33.203,128.418,999.512,162.598,999.512
1641936871.495,35.156,131.836,999.512,122.070,997.559
1641936871.498,28.809,128.418,999.512,100.586,-996.094
1641936871.502,7.812,106.445,999.512,109.375,984.863
1641936871.506,-27.832,115.723,999.512,159.180,973.633
1641936871.510,-3.418,134.766,999.512,162.598,-999.512
1641936871.514,22.949,126.465,999.512,86.426,-1000.000
1641936871.515,8.789,126.953,999.512,90.820,998.535
1641936871.519,37.109,128.906,999.512,175.781,999.512
1641936871.523,88.379,123.535,999.512,267.578,999.512
1641936871.527,131.348,106.445,999.512,359.375,999.512
1641936871.531,137.207,100.586,999.512,353.516,999.512
1641936871.535,123.535,103.027,999.512,372.070,999.512
1641936871.539,160.645,102.051,999.512,230.469,999.512
1641936871.542,214.844,94.727,999.512,-125.488,999.512
1641936871.546,182.129,79.102,999.512,-68.848,999.512
1641936871.550,125.000,97.656,999.512,136.230,999.512
1641936871.554,111.816,91.797,999.512,245.605,999.512
1641936871.558,90.820,72.754,999.512,354.980,999.512
1641936871.560,34.180,77.148,999.512,316.406,999.512
1641936871.564,-33.691,82.031,998.047,221.191,999.512
1641936871.568,-58.594,75.195,-995.605,136.230,999.512
1641936871.572,-83.008,59.082,973.145,69.336,999.512
1641936871.576,-136.719,57.617,995.605,38.086,999.512
1641936871.580,-179.688,58.594,904.297,-9.766,999.512
1641936871.584,-186.523,61.035,724.121,-93.262,999.512
1641936871.587,-161.621,53.711,469.238,-182.617,999.512
1641936871.591,-138.672,47.852,294.434,-270.508,999.512
1641936871.595,-135.254,62.500,488.281,-369.629,999.023
1641936871.599,-126.465,54.199,399.902,-464.355,998.047
1641936871.603,-78.125,51.758,259.277,-516.113,997.559
1641936871.620,-41.504,48.340,229.980,-581.543,959.473
1641936871.624,-33.691,46.387,51.270,-659.668,857.422
1641936871.628,-10.254,47.363,-221.191,-724.609,750.977
1641936871.632,43.457,47.363,-417.480,-791.992,673.340
1641936871.636,78.613,54.688,-412.598,-827.637,620.605
1641936871.640,103.027,40.039,-585.449,-854.980,549.316
1641936871.644,133.789,27.832,-843.750,-889.648,478.516
1641936871.647,137.207,18.555,-953.125,-903.809,411.133
1641936871.651,160.156,38.574,-957.520,-855.469,354.980
1641936871.655,160.156,55.176,-945.801,-768.555,343.750
1641936871.659,109.375,34.668,-971.191,-749.512,345.215
1641936871.663,96.680,25.879,-969.727,-735.840,304.199
1641936871.665,120.605,24.414,-968.750,-710.938,227.539
1641936871.669,112.305,16.602,-969.727,-807.617,158.691
1641936871.673,41.504,10.254,-969.238,-870.605,143.066
1641936871.677,2.441,5.371,-969.238,-792.969,114.746
1641936871.681,28.320,10.742,-969.238,-675.293,79.102
1641936871.685,38.574,10.742,-969.238,-522.949,32.715
1641936871.689,36.133,15.137,-969.238,-468.750,-17.578
1641936871.692,39.551,22.949,-969.238,-542.969,-44.434
1641936871.696,55.176,7.812,-969.727,-598.633,-84.473
1641936871.700,72.266,13.184,-969.238,-572.754,-90.820
1641936871.704,52.734,12.207,-969.238,-535.156,-103.516
1641936871.708,24.902,15.137,-969.727,-546.387,-142.578
1641936871.696,42.480,38.086,-969.238,-492.676,-148.438
1641936871.700,54.688,32.227,-968.750,-423.340,-150.879
1641936871.704,40.527,31.738,-969.727,-409.180,-210.938
1641936871.708,22.461,28.809,-969.727,-430.664,-206.543
1641936871.712,23.438,21.973,-957.520,-468.750,-178.223
1641936871.716,61.523,16.602,-963.379,-437.988,-223.633
1641936871.720,62.988,26.367,-971.680,-416.504,-244.629
1641936871.723,38.574,37.109,-968.750,-419.434,-244.141
1641936871.727,37.598,31.250,-969.727,-352.539,-269.043
1641936871.731,57.129,13.672,-969.727,-286.133,-292.480
1641936871.735,93.262,11.230,-969.727,-249.023,-346.191
1641936871.739,106.934,31.738,-969.727,-208.496,-340.820
1641936871.741,116.699,37.109,-969.727,-205.566,-324.707
1641936871.745,160.645,22.949,-969.727,-250.488,-348.145
1641936871.749,236.816,12.695,-969.727,-250.488,-334.961
1641936871.753,262.207,35.156,-969.727,-209.961,-386.230
1641936871.757,273.438,45.410,-969.727,-216.797,-423.828
1641936871.761,333.984,25.879,-969.727,-167.969,-446.289
1641936871.765,399.902,25.879,-969.727,-66.406,-439.941
1641936871.768,420.898,45.898,-969.727,-11.719,-436.523
1641936871.772,382.324,43.945,-969.238,-6.348,-446.289
1641936871.776,397.461,30.273,-963.867,-55.664,-442.871
1641936871.780,440.918,41.016,-981.934,-69.336,-497.559
1641936871.784,422.852,53.711,-896.484,-47.852,-492.188
1641936871.800,355.469,43.457,-769.531,-11.719,-496.094
1641936871.804,292.480,47.363,-709.473,27.832,-497.070
1641936871.808,281.250,46.387,-650.391,7.812,-514.648
1641936871.812,267.090,47.363,-526.855,-20.020,-491.699
1641936871.816,226.074,48.340,-328.613,-8.789,-436.035
1641936871.820,174.805,38.086,-492.676,20.508,-474.121
1641936871.824,147.949,47.363,-517.578,107.422,-448.730
1641936871.827,178.223,49.805,-240.234,219.238,-458.008
1641936871.831,191.406,31.738,-206.543,247.070,-460.938
1641936871.835,170.898,25.391,-417.480,170.898,-483.887
1641936871.839,187.012,38.086,-327.637,92.773,-513.184
1641936871.843,252.441,31.738,-89.844,68.848,-466.309
1641936871.845,272.461,9.277,-87.891,88.867,-403.809
1641936871.849,266.602,5.859,-220.215,122.559,-388.184
1641936871.853,292.480,29.297,-298.828,118.164,-445.801
1641936871.857,355.469,39.551,-273.926,107.910,-427.246
1641936871.861,373.047,15.625,-267.090,68.359,-413.086
1641936871.865,291.992,6.348,-339.844,34.668,-454.102
1641936871.869,278.809,18.066,-345.215,69.336,-453.613
1641936871.872,298.828,32.715,-209.961,138.184,-460.938
1641936871.876,305.664,32.715,-108.887,163.574,-460.449
1641936871.880,297.363,31.738,27.832,133.301,-465.820
1641936871.884,231.934,42.480,632.324,128.906,-469.238
1641936871.888,165.039,28.320,980.957,126.465,-497.559
1641936871.891,158.691,29.785,983.398,115.234,-514.160
1641936871.895,114.258,32.227,996.582,131.836,-490.723
1641936871.899,29.785,27.344,999.512,126.465,-457.520
1641936871.903,-31.738,20.020,999.512,62.012,-463.867
1641936871.907,-41.992,37.598,999.512,59.570,-503.418
1641936871.911,-65.918,42.480,999.512,89.355,-522.461
1641936871.915,-112.305,44.434,999.512,62.012,-544.922
1641936871.918,-94.238,51.270,999.512,72.754,-542.969
1641936871.922,-102.051,49.316,999.512,105.957,-521.973
1641936871.926,-55.664,108.398,999.512,215.332,-485.352
1641936871.930,25.879,125.488,999.512,324.219,-463.379
1641936871.934,-43.945,85.938,999.512,278.320,-501.465
1641936871.936,-34.180,122.559,999.512,302.246,-476.562
1641936871.940,34.668,156.250,999.512,330.566,-448.730
1641936871.944,-7.812,164.062,999.512,243.164,-460.449
1641936871.948,-66.406,191.406,999.512,127.441,-450.684
1641936871.952,-125.000,169.434,999.512,-7.812,-458.984
1641936871.956,-133.789,136.719,999.512,-25.879,-460.938
1641936871.960,-125.977,131.348,999.512,-63.965,-466.797
1641936871.963,-183.105,64.453,999.512,-176.758,-516.113
1641936871.967,-207.520,5.859,999.512,-213.867,-497.559
1641936871.971,-141.113,-27.344,999.512,-202.148,-446.777
1641936871.975,-91.797,-114.746,999.512,-208.008,-472.656
1641936871.979,-139.160,-167.969,999.512,-261.230,-506.348
1641936871.996,-232.422,-154.297,999.512,-330.566,-529.297
1641936872.000,-252.930,-127.930,999.512,-340.820,-523.438
1641936872.004,-252.441,-21.973,999.512,-336.426,-483.398
1641936872.008,-282.227,209.473,999.512,-353.516,-496.094
1641936872.012,-247.070,364.746,999.512,-391.113,-574.219
1641936872.016,-199.707,460.449,999.512,-404.297,-558.594
1641936872.020,-218.750,546.387,999.512,-393.555,-503.906
1641936872.023,-273.926,536.621,999.512,-431.641,-554.199
1641936872.027,-282.227,534.668,999.512,-412.109,-552.246
1641936872.031,-250.977,520.020,999.512,-362.793,-536.133
1641936872.035,-277.344,465.820,999.512,-354.004,-544.922
1641936872.039,-281.250,438.965,999.512,-365.723,-543.457
1641936872.026,-306.641,447.754,999.512,-376.953,-539.062
1641936872.030,-378.418,435.059,999.512,-427.246,-540.039
1641936872.034,-400.391,420.898,-1000.000,-444.824,-557.129
1641936872.038,-396.973,461.426,994.141,-393.555,-518.555
1641936872.042,-416.016,471.191,998.047,-403.320,-489.746
1641936872.046,-444.824,436.035,993.652,-388.184,-479.004
1641936872.050,-441.895,410.156,731.934,-354.980,-467.285
1641936872.053,-416.016,403.320,579.590,-302.734,-432.617
1641936872.057,-407.715,396.973,447.754,-257.812,-421.875
1641936872.061,-392.090,391.602,345.215,-277.832,-398.926
1641936872.065,-393.066,371.582,60.547,-256.836,-355.469
1641936872.069,-375.000,358.887,-339.355,-198.730,-375.488
1641936872.071,-338.379,386.230,-169.922,-151.855,-360.352
1641936872.075,-367.676,388.672,-246.582,-143.066,-336.914
1641936872.079,-378.906,376.465,-571.777,-147.949,-291.504
1641936872.083,-352.051,376.465,-708.008,-124.023,-248.047
1641936872.087,-339.355,370.605,-842.773,-90.820,-228.027
1641936872.091,-323.242,358.887,-978.027,-53.711,-225.098
1641936872.095,-303.223,328.125,-965.820,-68.848,-181.641
1641936872.098,-267.578,310.059,-967.285,-80.566,-167.969
1641936872.102,-228.027,295.898,-970.215,-38.574,-123.047
1641936872.106,-250.000,257.324,-969.727,-15.137,-100.098
1641936872.110,-257.812,230.469,-969.727,-15.137,-110.352
1641936872.114,-222.656,224.609,-969.238,-20.020,-116.211
1641936872.131,-208.008,206.543,-969.238,1.953,-95.703
1641936872.135,-198.730,182.617,-969.238,31.738,-79.590
1641936872.139,-181.152,184.082,-969.238,24.902,-70.801
1641936872.143,-151.367,175.781,-969.727,19.531,-62.988
1641936872.147,-119.141,151.855,-969.727,26.367,-44.434
1641936872.151,-123.535,138.672,-969.727,36.133,-40.527
1641936872.155,-142.578,166.016,-969.727,16.602,-54.199
1641936872.158,-123.047,196.289,-969.727,-8.301,-18.555
1641936872.162,-72.754,195.801,-969.727,38.086,-8.789
1641936872.166,-39.062,177.246,-969.238,93.262,-52.734
1641936872.170,-58.594,177.734,-969.727,75.684,-21.484
1641936872.174,-50.293,170.410,-969.727,45.898,16.602
1641936872.175,-6.836,145.020,-969.238,81.055,-36.133
1641936872.179,31.250,135.742,-969.238,126.465,-35.645
1641936872.183,48.828,126.465,-969.238,110.840,-10.742
1641936872.187,28.809,114.258,-969.238,66.895,2.930
1641936872.191,24.902,101.562,-969.727,34.180,-12.207
1641936872.195,54.688,90.820,-969.238,60.547,-17.578
1641936872.199,72.266,92.285,-969.238,95.215,-36.133
1641936872.202,56.152,106.445,-969.238,77.148,-42.969
1641936872.206,49.316,87.891,-969.238,49.316,-30.762
1641936872.210,54.688,45.410,-969.727,34.668,-69.336
1641936872.214,42.969,44.922,-969.727,69.336,-59.082
1641936872.218,0.977,39.551,-969.238,64.453,21.484
1641936872.222,-45.898,-5.371,-969.727,31.738,48.828
1641936872.226,-37.109,-15.625,-969.727,59.570,-4.395
1641936872.230,-29.297,1.953,-969.238,85.449,-24.414
1641936872.234,-82.031,-20.996,-969.238,67.871,8.789
1641936872.238,-103.027,-40.039,-969.727,30.273,1.465
1641936872.242,-100.098,-45.410,-969.238,22.949,-10.254
1641936872.246,-87.402,-58.105,-969.727,76.660,-1.465
1641936872.249,-82.031,-44.434,-969.238,106.934,11.230
1641936872.253,-120.605,-37.598,-969.238,78.125,-34.668
1641936872.257,-114.746,-26.367,-969.727,55.176,-77.148
1641936872.261,-55.176,-7.812,-969.238,75.195,-28.809
1641936872.265,-47.363,-25.391,-969.238,93.262,-24.902
1641936872.265,-80.078,-34.180,-969.727,56.641,-22.461
1641936872.269,-78.613,-29.785,-969.727,98.633,-24.902
1641936872.273,-42.480,-22.949,-969.238,65.430,-29.785
1641936872.277,-32.715,-28.809,-969.727,-73.242,-3.418
1641936872.281,-60.059,-29.785,-969.727,13.672,-44.922
1641936872.285,-93.750,-27.344,-969.727,55.664,-49.316
1641936872.289,-88.867,-30.762,-969.727,-36.133,-26.855
1641936872.292,-36.621,-42.969,-969.727,12.207,-19.043
1641936872.296,-30.762,-62.500,-969.727,59.570,-38.086
1641936872.300,-49.316,-34.668,-969.238,-11.230,-7.324
1641936872.304,-9.766,-30.762,-969.238,6.348,64.941
1641936872.308,34.668,-53.223,-969.238,85.449,59.082
1641936872.310,33.203,-56.152,-969.727,111.816,25.391
1641936872.314,28.809,-64.941,-969.238,62.012,-2.930
1641936872.318,78.125,-54.199,-969.238,37.109,49.316
1641936872.322,141.602,-45.898,-969.238,85.938,28.809
1641936872.326,183.105,-43.457,-969.238,125.000,-16.602
1641936872.330,184.082,-51.270,-969.727,96.680,-28.809
1641936872.334,176.270,-41.016,-969.727,83.984,-40.039
1641936872.337,196.777,-41.992,-969.238,77.148,-57.129
1641936872.341,225.586,-41.992,-969.238,66.895,-75.684
1641936872.345,215.332,-17.090,-969.238,57.617,-38.574
1641936872.349,201.660,-18.066,-969.238,14.160,-49.805
1641936872.353,225.586,-14.648,-969.727,7.324,-64.453
1641936872.356,225.586,-17.578,-969.727,14.648,-53.223
1641936872.360,190.430,-25.391,-969.238,10.254,-41.992
1641936872.364,154.785,-19.043,-969.238,4.883,-45.898
1641936872.368,150.879,-20.508,-969.727,-11.230,-63.477
1641936872.372,174.805,-27.344,-969.727,5.859,-78.125
1641936872.376,170.898,-29.785,-969.238,17.578,-57.129
1641936872.380,124.023,-29.785,-969.727,-11.719,-60.059
1641936872.383,106.934,-41.504,-969.727,-16.113,-122.559
1641936872.387,135.254,-33.203,-970.215,22.949,-138.184
1641936872.391,140.625,-19.531,-965.332,64.453,-108.398
1641936872.395,123.047,-22.949,-969.727,50.293,-90.332
1641936872.399,112.305,-22.949,-948.242,7.324,-87.891
1641936872.400,143.066,-12.207,-765.625,33.691,-51.758
1641936872.404,167.969,-1.953,-534.180,72.266,-57.129
1641936872.408,151.855,-11.230,-541.992,76.172,-58.105
1641936872.412,149.414,-17.090,-507.812,50.781,-24.414
1641936872.416,160.156,-24.414,-375.488,27.832,-23.926
1641936872.420,171.875,-31.250,-401.855,49.316,-53.223
1641936872.424,172.852,-27.832,-588.867,68.359,-31.738
1641936872.427,152.832,-12.207,-650.391,52.734,-10.742
1641936872.431,151.855,-1.953,-466.309,21.484,-78.613
1641936872.435,164.062,-8.789,-475.586,45.898,-108.398
1641936872.439,145.020,7.812,-636.719,75.195,-93.262
1641936872.443,102.539,11.719,-664.551,40.527,-82.520
1641936872.446,99.609,-3.418,-661.621,11.230,-76.172
1641936872.450,131.348,-2.930,-852.539,21.973,-100.586
1641936872.454,133.301,1.465,-938.477,49.316,-97.656
1641936872.458,104.492,5.371,-867.188,45.410,-85.449
1641936872.462,91.309,-4.883,-842.285,15.137,-115.723
1641936872.466,132.812,-23.926,-951.172,34.180,-145.020
1641936872.470,176.758,-24.414,-978.027,81.543,-128.906
1641936872.473,166.992,-3.418,-916.992,82.031,-107.910
1641936872.477,142.578,-5.371,-755.371,58.594,-57.617
1641936872.481,135.742,-29.297,-775.391,57.617,-49.805
1641936872.485,151.855,-16.113,-803.223,88.867,-59.570
1641936872.489,135.254,-8.789,-748.535,98.145,-38.086
1641936872.491,80.566,-18.555,-754.395,66.895,-63.965
1641936872.495,67.871,-22.461,-806.641,46.387,-136.230
1641936872.499,107.910,-31.250,-795.410,52.246,-141.113
1641936872.503,110.352,-14.160,-580.566,44.922,-98.145
1641936872.507,72.266,-11.230,-535.156,27.832,-102.051
1641936872.511,72.266,-31.250,-788.086,30.762,-103.027
1641936872.515,84.473,-22.461,-906.738,41.992,-109.863
1641936872.518,93.262,0.000,-612.305,82.520,-111.816
1641936872.522,72.266,-3.906,-518.066,95.215,-71.777
1641936872.526,37.109,-12.695,-781.738,66.406,-78.125
1641936872.530,54.688,-10.254,-989.258,59.570,-76.172
1641936872.534,86.914,3.906,-960.938,69.336,-47.852
1641936872.551,59.082,-4.883,-966.797,62.988,-85.938
1641936872.555,22.949,-15.625,-970.215,29.785,-130.859
1641936872.559,24.902,-12.207,-969.238,24.902,-105.957
1641936872.563,46.387,-4.395,-969.238,57.129,-105.469
1641936872.567,40.039,-3.906,-969.727,85.938,-135.254
1641936872.571,-11.719,-22.949,-969.727,76.172,-144.531
1641936872.575,-16.602,-18.066,-969.238,63.965,-123.535
1641936872.578,26.367,-16.602,-969.238,92.773,-86.914
1641936872.582,29.785,-29.297,-969.727,130.371,-103.027
1641936872.586,-3.906,-38.086,-969.727,113.281,-107.422
1641936872.590,-17.578,-17.578,-969.727,80.078,-96.191
1641936872.594,2.930,-11.719,-969.727,69.824,-88.867
1641936872.596,11.230,-17.578,-963.867,84.961,-31.738
1641936872.600,-22.461,-21.973,-974.609,100.098,-40.039
1641936872.604,-80.566,-27.832,-945.801,67.383,-64.941
1641936872.608,-78.125,-15.625,-902.832,83.984,-26.855
1641936872.612,-56.641,-14.648,-950.684,124.512,-8.301
1641936872.616,-92.285,-30.273,-975.098,121.094,-40.039
1641936872.620,-113.281,-22.461,-966.797,89.844,-41.016
1641936872.623,-73.730,2.930,-969.727,81.543,-31.738
1641936872.627,-63.965,-14.648,-969.727,92.285,-60.059
1641936872.631,-92.773,-31.250,-969.727,82.520,-89.844
1641936872.635,-91.797,6.348,-969.238,91.797,-43.457
1641936872.639,-64.941,1.465,-969.238,102.051,-38.574
1641936872.640,-43.945,-14.160,-969.238,115.723,-52.246
1641936872.644,-49.805,-3.418,-969.238,146.484,-36.621
1641936872.648,-45.898,-1.465,-969.238,137.207,-45.410
1641936872.652,-36.133,-8.301,-969.727,102.051,-40.527
1641936872.656,-5.859,-4.395,-969.238,98.145,-11.230
1641936872.660,7.812,7.324,-969.727,115.723,9.766
1641936872.664,0.488,17.578,-970.215,136.719,2.930
1641936872.667,-13.672,13.672,-959.473,104.004,8.301
1641936872.671,-3.418,-2.930,-967.285,76.660,-8.789
1641936872.675,29.785,14.160,-973.633,94.727,-58.105
1641936872.679,-1.465,25.391,-852.539,63.965,-14.160
1641936872.683,-60.059,-3.418,-866.211,20.020,9.277
1641936872.686,-74.219,11.719,-979.980,-0.488,-16.113
1641936872.690,-53.711,20.996,-967.773,9.766,3.418
1641936872.694,-69.336,-0.977,-967.285,31.250,10.254
1641936872.698,-140.137,-8.789,-970.215,6.836,13.184
1641936872.702,-166.992,-19.531,-969.727,9.277,-3.418
1641936872.706,-154.297,-26.367,-969.238,4.395,-18.066
1641936872.710,-117.188,-16.602,-969.238,7.812,-38.086
1641936872.713,-111.328,-36.621,-969.238,23.926,-45.898
1641936872.717,-110.840,-49.316,-969.238,-12.695,-26.855
1641936872.721,-42.480,-26.855,-969.238,-13.672,-14.160
1641936872.725,5.371,-39.062,-969.727,40.527,-29.785
1641936872.729,-7.324,-45.898,-969.727,60.059,-12.695
1641936872.745,-29.297,-31.250,-969.238,25.391,23.926
1641936872.749,9.277,-25.391,-969.727,17.578,68.848
1641936872.753,49.316,-29.785,-969.727,35.645,32.227
1641936872.757,39.062,-7.812,-969.238,36.621,4.395
1641936872.761,40.039,7.812,-969.727,23.438,10.254
1641936872.765,68.359,5.859,-970.215,7.324,-41.992
1641936872.769,111.816,2.930,-965.820,37.109,-47.852
1641936872.772,117.188,0.488,-972.656,71.777,-40.039
1641936872.776,96.191,14.160,-952.637,73.242,-47.852
1641936872.780,87.402,19.531,-822.754,68.848,-33.691
1641936872.784,115.234,13.184,-835.938,72.754,-20.508
1641936872.788,131.348,14.648,-884.766,83.496,-36.621
1641936872.776,104.004,19.043,-721.191,78.613,-23.926
1641936872.780,84.961,22.461,-671.387,60.059,13.184
1641936872.784,94.727,19.531,-844.238,70.801,-0.488
1641936872.788,123.047,23.926,-817.383,93.262,-23.438
1641936872.792,117.676,31.738,-674.805,69.824,-60.059
1641936872.796,89.844,17.090,-862.793,27.344,-87.891
1641936872.800,113.281,14.160,-988.770,17.090,-65.430
1641936872.803,142.578,23.438,-845.703,41.504,-61.523
1641936872.807,147.461,22.949,-639.648,72.754,-28.320
1641936872.811,122.559,20.020,-513.672,63.477,22.461
1641936872.815,107.910,18.555,-727.539,37.109,-17.578
1641936872.819,155.273,19.531,-882.812,46.387,-71.777
1641936872.822,180.664,25.391,-566.895,71.777,-89.355
1641936872.826,147.461,17.578,-439.453,54.199,-104.980
1641936872.830,145.508,20.020,-482.422,31.250,-75.684
1641936872.834,173.828,29.785,-417.969,41.016,-81.055
1641936872.838,181.152,28.809,-408.691,56.641,-83.496
1641936872.842,151.855,25.391,-521.484,46.387,-90.820
1641936872.846,113.281,18.066,-719.727,19.531,-132.324
1641936872.849,121.582,30.273,-747.070,8.789,-111.816
1641936872.853,157.715,50.293,-354.004,36.133,-60.059
1641936872.857,129.395,41.504,-278.320,50.293,-64.941
1641936872.861,85.449,42.480,-343.750,24.414,-77.637
1641936872.865,88.379,48.828,-275.391,8.301,-81.543
1641936872.880,83.984,48.828,-261.230,23.926,-58.105
1641936872.884,70.801,43.945,-401.855,32.227,-51.270
1641936872.888,46.875,50.781,-450.684,22.461,-40.527
1641936872.892,27.344,55.176,-349.121,12.695,-45.898
1641936872.896,56.641,36.621,-358.398,17.090,-69.824
1641936872.900,62.500,18.555,-592.773,42.969,-79.590
1641936872.904,35.156,20.020,-639.648,27.344,-76.660
1641936872.907,34.180,22.949,-472.656,-18.066,-101.074
1641936872.911,64.453,29.297,-382.324,0.488,-145.020
1641936872.915,88.379,19.531,-500.977,33.203,-118.164
1641936872.919,79.102,32.715,-472.168,43.945,-81.543
1641936872.923,79.102,54.688,-93.750,40.039,-40.039
1641936872.925,91.309,44.922,-65.430,29.297,-54.199
1641936872.929,119.141,45.898,-27.344,62.988,-105.469
1641936872.933,110.840,46.875,98.633,83.008,-87.891
1641936872.937,74.707,45.410,111.328,48.828,-38.574
1641936872.941,68.359,37.109,62.500,13.672,-46.875
1641936872.945,84.473,36.621,-26.367,19.043,-118.164
1641936872.949,81.055,51.270,-106.934,46.875,-149.414
1641936872.952,42.969,63.477,-3.906,43.945,-104.980
1641936872.956,15.625,46.875,8.789,10.254,-92.773
1641936872.960,36.133,33.203,-327.637,4.883,-131.836
1641936872.964,49.805,48.828,-324.707,33.203,-137.695
1641936872.968,19.043,50.781,5.371,35.645,-99.121
1641936872.971,-10.742,39.062,-68.848,4.883,-88.867
1641936872.975,9.766,43.457,-272.461,-5.859,-109.375
1641936872.979,34.668,54.688,-111.816,2.930,-99.121
1641936872.983,23.926,52.734,-2.930,20.508,-89.355
1641936872.987,4.883,49.316,-117.188,11.719,-111.816
1641936872.991,17.090,49.316,-229.004,15.625,-92.285
1641936872.995,41.016,50.293,-236.816,51.758,-77.637
1641936872.998,45.898,46.387,-89.355,63.477,-79.590
1641936873.002,16.113,29.785,-174.805,54.688,-67.383
1641936873.006,7.324,28.809,-381.836,42.969,-93.262
1641936873.010,40.039,41.504,-62.012,61.523,-68.359
1641936873.014,42.969,29.297,90.332,92.773,-99.121
1641936873.016,6.348,25.391,8.301,72.754,-114.258
1641936873.020,-20.508,23.438,-79.590,42.969,-107.910
1641936873.024,4.883,35.645,-5.371,55.664,-108.398
1641936873.028,16.113,29.785,98.633,78.613,-80.078
1641936873.032,-3.906,19.531,-5.371,87.891,-75.684
1641936873.036,-20.996,28.320,-84.961,71.289,-53.711
1641936873.040,-5.371,34.180,-152.832,79.590,-71.289
1641936873.043,19.531,35.645,-51.270,113.770,-16.113
1641936873.047,-18.555,24.902,-212.402,99.121,-44.434
1641936873.051,-50.293,44.434,-169.434,61.523,-76.172
1641936873.055,-30.273,38.086,128.906,38.086,-10.742
1641936873.059,-9.277,16.602,36.133,57.617,-70.312
1641936873.060,-14.160,25.879,72.754,63.965,-69.824
1641936873.064,-29.785,29.785,148.438,37.598,-35.156
1641936873.068,-20.508,31.250,157.227,27.832,-11.719
1641936873.072,11.230,29.297,58.105,41.504,-35.645
1641936873.076,21.973,28.809,-61.035,73.730,-64.941
1641936873.080,-10.742,34.668,-64.453,65.430,-44.922
1641936873.084,-23.926,41.016,33.691,32.715,-16.602
1641936873.087,0.977,27.832,-44.434,25.391,-41.992
1641936873.091,6.836,16.602,-222.656,27.344,-46.387
1641936873.095,6.348,27.344,122.070,21.973,-2.441
1641936873.099,-20.996,17.578,316.406,-17.578,-23.926
1641936873.103,-20.508,24.414,170.410,-17.578,-56.641
1641936873.106,50.293,61.523,247.559,85.449,-21.484
1641936873.110,71.777,66.895,415.039,128.906,-1.465
1641936873.114,61.035,47.363,544.922,96.680,-36.133
1641936873.118,75.195,43.945,854.004,73.730,-42.969
1641936873.122,97.656,49.805,-990.723,104.980,-29.297
1641936873.126,81.055,45.898,991.699,114.258,-12.207
1641936873.130,22.461,43.457,997.559,56.641,-5.859
1641936873.133,-11.719,41.992,-998.047,36.621,-65.430
1641936873.137,-8.789,43.945,980.957,53.223,-68.848
1641936873.141,-22.949,41.504,-975.586,61.035,-68.359
1641936873.145,-69.824,24.414,906.738,19.531,-83.496
1641936873.149,-99.121,23.926,454.102,-42.969,-61.523
1641936873.150,-67.383,47.363,453.613,-53.711,-62.988
1641936873.154,-50.293,53.223,672.363,-41.016,-67.383
1641936873.158,-82.031,36.133,467.773,-56.152,-60.547
1641936873.162,-92.773,30.762,279.785,-92.773,-44.434
1641936873.166,-59.082,39.551,377.441,-84.473,-28.320
1641936873.170,-23.926,26.855,312.988,-28.320,-41.016
1641936873.174,-28.809,16.602,141.602,-8.789,-46.875
1641936873.177,-53.711,23.926,200.684,-23.926,-46.387
1641936873.181,-27.344,24.414,294.922,-28.809,-44.922
1641936873.185,6.348,19.043,278.809,0.000,-36.621
1641936873.189,-17.578,8.789,49.805,20.996,-78.125
1641936873.193,-52.246,17.090,-116.699,1.465,-128.418
1641936873.195,-59.082,42.969,273.438,-5.371,-60.547
1641936873.199,-43.945,30.273,437.012,2.441,-7.812
1641936873.203,-32.715,20.996,341.309,20.996,-19.043
1641936873.207,-61.523,25.391,395.996,29.297,4.883
1641936873.211,-85.938,18.555,416.016,-2.930,-1.953
1641936873.215,-76.172,4.395,247.070,-10.254,-23.926
1641936873.219,-69.336,4.395,-99.609,3.906,-69.336
1641936873.222,-57.129,27.344,-74.707,16.602,-96.191
1641936873.226,-56.152,30.762,246.094,7.324,-15.625
1641936873.230,-37.109,9.277,215.332,-11.719,19.043
1641936873.234,28.320,13.672,177.246,17.578,-5.859
1641936873.238,40.039,24.414,220.703,28.320,11.719
1641936873.241,-3.418,29.297,184.570,-3.906,18.066
1641936873.245,6.348,28.320,63.965,-20.996,11.230
1641936873.249,61.035,28.320,-27.344,5.859,7.812
1641936873.253,88.867,35.645,156.738,39.551,-26.367
1641936873.257,68.359,19.531,272.949,26.367,-41.016
1641936873.261,42.480,-8.301,-56.641,-9.766,-43.945
1641936873.265,72.266,6.836,-297.363,-0.488,-75.684
1641936873.268,100.098,33.203,-11.719,21.973,-45.410
1641936873.272,71.777,19.043,79.590,10.254,-11.230
1641936873.276,46.875,11.719,-205.078,-10.742,-34.180
1641936873.280,47.852,20.020,-261.719,-9.766,-38.574
1641936873.284,61.035,25.391,-17.090,8.789,-2.441
1641936873.300,42.969,15.625,-15.625,8.301,-3.418
1641936873.304,16.113,14.648,-80.078,-21.973,-36.621
1641936873.308,23.926,13.672,-137.695,-34.180,-69.336
1641936873.312,43.945,15.137,-85.449,-2.441,-91.309
1641936873.316,48.340,14.648,3.418,14.160,-86.914
1641936873.320,16.602,0.977,-250.488,-8.789,-103.516
1641936873.324,6.836,15.625,-262.695,-24.902,-104.980
1641936873.327,50.293,26.367,97.168,-1.953,-44.434
1641936873.331,65.918,11.719,152.344,34.180,-55.176
1641936873.335,43.945,7.324,-18.555,25.391,-83.984
1641936873.339,51.758,21.484,50.293,2.930,-61.035
1641936873.343,85.449,20.508,212.891,15.137,-6.836
1641936873.345,99.609,8.301,200.684,36.133,-16.113
1641936873.349,84.961,12.695,161.621,36.621,-53.711
1641936873.353,71.777,20.020,275.879,10.742,-50.293
1641936873.357,86.426,12.207,331.055,5.371,-61.523
1641936873.361,106.445,4.395,233.887,26.367,-35.645
1641936873.365,72.266,7.324,183.105,27.832,-12.207
1641936873.369,9.277,6.348,163.574,8.301,-63.965
1641936873.372,36.133,16.113,175.293,-0.977,-81.543
1641936873.376,79.102,14.160,68.359,28.320,-58.105
1641936873.380,54.199,5.859,-95.215,52.734,-87.891
1641936873.384,45.898,18.555,204.102,40.527,-64.941
1641936873.388,63.477,6.836,449.219,39.062,-4.395
1641936873.390,86.426,-2.441,397.461,63.477,-21.973
1641936873.394,88.867,-2.441,408.203,95.215,-6.348
1641936873.398,62.988,-10.742,460.449,91.309,10.254
1641936873.402,32.715,-16.602,410.156,62.988,-14.160
1641936873.406,9.766,-14.648,323.242,59.570,-7.812
1641936873.410,5.371,-14.648,221.680,78.613,-6.836
1641936873.414,-14.648,-7.324,186.035,72.266,-25.391
1641936873.417,-33.691,-3.906,301.758,15.625,-20.508
1641936873.421,6.836,-20.508,54.688,-7.324,9.766
1641936873.425,56.641,-6.348,-30.762,19.531,-9.766
1641936873.429,49.805,8.301,297.363,24.902,-47.852
1641936873.433,21.973,-6.836,250.488,21.484,-41.992
1641936873.435,42.969,2.441,188.477,16.602,-17.578
1641936873.439,78.613,13.184,289.551,22.461,-20.508
1641936873.443,79.102,4.395,272.461,44.922,-37.598
1641936873.447,45.898,0.000,206.055,25.391,-32.715
1641936873.451,35.156,0.000,193.359,-0.488,-21.484
1641936873.455,61.035,0.977,129.883,15.625,-33.203
1641936873.459,58.105,1.953,253.906,25.879,-11.230
1641936873.462,4.883,-18.066,157.715,20.996,-16.602
1641936873.466,-22.461,-12.695,-67.383,10.254,-41.504
1641936873.470,14.648,9.766,235.840,29.785,-20.020
1641936873.474,41.016,-9.277,395.996,61.035,-32.715
1641936873.478,18.555,-15.625,270.020,54.199,-41.992
1641936873.481,-20.020,-4.395,319.336,32.715,-12.207
1641936873.485,-24.902,-2.441,448.242,22.949,-19.531
1641936873.489,-4.883,-10.254,414.062,45.898,-40.039
1641936873.493,3.906,-13.672,309.082,55.176,-31.250
1641936873.497,-18.555,-13.672,267.578,16.113,-57.617
1641936873.501,-27.832,-21.973,133.789,-32.227,-89.355
1641936873.505,0.488,-8.301,41.504,-37.109,-89.355
1641936873.508,7.812,-10.254,-151.367,-19.043,-89.355
1641936873.512,-5.371,0.977,-119.141,-25.879,-51.270
1641936873.516,-3.418,9.766,182.617,-16.113,-27.832
1641936873.520,19.043,-15.137,159.668,33.203,-41.504
1641936873.524,46.875,-13.672,105.469,70.312,-59.082
1641936873.526,29.785,0.488,151.855,37.109,-57.129
1641936873.530,-5.371,-11.230,158.203,-26.855,-46.387
1641936873.534,6.348,-34.668,-87.891,-29.297,-72.266
1641936873.538,39.062,-15.625,-120.117,9.277,-46.387
1641936873.542,26.855,-5.859,109.863,35.645,-12.695
1641936873.546,-9.277,-22.949,-11.230,24.414,-54.199
1641936873.550,-6.348,-24.902,-230.469,6.836,-48.340
1641936873.553,9.766,-22.461,-438.965,25.391,-67.871
1641936873.557,8.301,-0.977,-164.551,32.227,-33.691
1641936873.561,-17.578,-4.883,118.652,4.395,13.184
1641936873.565,-26.855,-18.066,-20.508,-12.695,-27.832
1641936873.569,-14.648,-16.602,-35.156,1.953,-44.434
1641936873.570,0.977,-14.648,122.070,39.062,-17.090
1641936873.574,-6.348,-19.531,122.070,27.344,-18.555
1641936873.578,-11.719,-18.555,31.250,-2.441,-25.391
1641936873.582,20.508,-10.254,110.840,5.859,8.301
1641936873.586,43.945,-15.137,91.797,25.391,-26.367
1641936873.590,36.621,-10.742,-4.395,46.875,-5.859
1641936873.594,16.113,-13.672,-264.648,28.320,43.945
1641936873.597,28.809,-12.207,-383.789,13.672,-3.906
1641936873.601,65.430,-0.488,67.871,44.434,42.969
1641936873.605,60.547,-17.090,78.125,51.758,37.598
1641936873.609,35.156,-19.043,-58.105,26.367,-41.016
1641936873.613,41.016,-13.672,55.664,9.766,13.184
1641936873.630,59.082,-9.277,107.422,30.273,55.176
1641936873.634,54.199,-8.301,59.082,56.641,12.695
1641936873.638,26.367,-7.324,92.773,44.434,27.344
1641936873.642,18.555,-7.812,100.098,22.949,-13.672
1641936873.646,45.898,-13.184,149.902,43.457,-40.039
1641936873.650,42.480,-32.227,-41.504,64.941,-41.016
1641936873.654,15.625,-20.020,-166.504,34.180,-30.273
1641936873.657,18.066,5.371,77.637,0.488,2.441
1641936873.661,48.828,-5.859,122.070,17.578,-1.465
1641936873.665,74.219,-21.484,-3.418,51.758,10.254
1641936873.669,53.223,-20.508,-51.270,54.199,-16.113
1641936873.673,26.855,-7.324,176.758,19.531,-10.254
1641936873.675,27.344,-17.090,177.734,12.695,4.395
1641936873.679,45.410,-19.043,125.000,46.387,9.766
1641936873.683,46.387,-15.137,113.770,52.734,3.418
1641936873.687,17.090,-17.090,128.906,36.621,1.465
1641936873.691,4.395,-15.137,142.090,19.043,32.227
1641936873.695,20.020,-20.508,10.742,22.949,32.715
1641936873.699,20.996,-21.973,-73.730,50.781,2.930
1641936873.702,4.395,-12.207,14.648,45.898,-5.859
1641936873.706,2.930,-17.090,56.152,18.555,-8.789
1641936873.710,21.973,-27.344,-229.004,9.277,-32.227
1641936873.714,33.691,-8.301,-255.371,25.879,-41.016
1641936873.718,17.578,-3.906,214.355,33.203,13.672
1641936873.721,0.977,-20.020,207.031,5.859,-10.742
1641936873.725,19.043,-22.461,87.402,10.254,-27.344
1641936873.729,56.152,-12.207,344.727,41.504,35.156
1641936873.733,50.781,-12.207,430.176,43.945,42.969
1641936873.737,21.484,-20.996,372.070,20.996,29.297
1641936873.741,34.180,-25.879,255.859,15.137,24.414
1641936873.745,45.410,-22.461,166.504,38.086,-6.836
1641936873.748,25.391,-13.672,318.359,46.387,13.184
1641936873.752,-18.066,-33.691,212.402,33.691,20.996
1641936873.756,-5.371,-41.992,-26.367,31.738,-39.062
1641936873.760,43.945,-15.625,259.277,47.852,-19.531
1641936873.764,32.715,-10.742,424.316,56.641,24.902
1641936873.766,5.859,-14.160,333.984,24.414,37.109
1641936873.770,8.301,-4.395,211.914,-6.348,47.363
1641936873.774,41.992,10.254,285.645,6.836,26.855
1641936873.778,53.711,3.418,353.516,34.180,30.273
1641936873.782,22.461,-8.789,187.500,28.320,3.906
1641936873.786,0.488,-6.348,43.457,-12.695,-26.367
1641936873.790,28.320,6.836,104.980,-9.277,-2.441
1641936873.793,50.781,5.859,221.191,22.461,19.043
1641936873.797,31.738,-8.789,-31.250,30.762,-20.020
1641936873.801,20.508,2.930,-6.348,2.441,-43.945
1641936873.805,42.969,8.301,307.129,-10.742,10.742
1641936873.809,71.777,0.977,276.367,29.297,22.949
1641936873.811,53.711,-2.930,260.254,42.480,24.902
1641936873.815,18.066,-7.324,315.918,15.137,39.551
1641936873.819,21.484,-12.207,306.641,-0.977,-4.395
1641936873.823,34.668,-23.926,193.848,4.883,-28.320
1641936873.827,48.828,-26.855,98.633,34.180,11.230
1641936873.831,31.250,-19.043,79.102,25.879,-5.371
1641936873.835,5.859,-17.578,38.574,-8.789,-50.293
1641936873.838,19.531,-25.391,-64.453,1.953,-47.852
1641936873.842,30.762,-29.297,-290.039,23.926,-79.102
1641936873.846,19.043,-1.465,2.930,27.832,-35.645
1641936873.850,-14.160,-8.301,296.387,0.000,29.785
1641936873.854,-4.883,-21.484,157.715,-18.066,-4.395
1641936873.856,34.668,-15.137,164.551,8.301,-44.922
1641936873.860,26.855,-20.020,308.594,24.414,-45.410
1641936873.864,-6.348,-27.832,416.016,10.254,-20.996
1641936873.868,-2.930,-27.344,381.836,4.883,-14.648
1641936873.872,29.297,-23.926,317.871,38.086,-10.254
1641936873.876,34.180,-33.203,187.988,63.965,27.344
1641936873.880,16.602,-28.809,99.121,38.086,33.691
1641936873.883,12.695,-34.180,-111.328,2.441,18.066
1641936873.887,39.551,-22.949,-229.980,5.371,6.836
1641936873.891,62.012,-15.137,83.984,33.203,9.766
1641936873.895,42.480,-30.762,99.609,36.133,41.992
1641936873.899,27.344,-27.344,1.465,7.324,76.172
1641936873.900,46.875,-15.137,106.445,3.418,89.844
1641936873.904,72.754,-14.160,172.363,26.855,85.449
1641936873.908,64.941,-20.996,87.891,25.391,61.523
1641936873.912,40.039,-24.902,27.832,-8.301,25.879
1641936873.916,50.293,-25.391,31.250,-14.648,26.367
1641936873.920,73.242,-29.785,25.391,29.297,30.762
1641936873.924,44.434,-39.551,-143.066,44.922,1.953
1641936873.927,2.930,-38.086,-330.078,21.484,-5.371
1641936873.931,9.766,-25.391,-73.730,-1.953,-7.812
1641936873.935,27.832,-32.715,-36.133,0.977,-31.250
1641936873.939,10.254,-35.156,-220.215,17.090,-18.555
1641936873.943,-23.438,-27.832,-110.840,-3.418,-10.742
1641936873.946,-29.297,-29.297,30.762,-26.855,-6.836
1641936873.950,0.000,-35.645,11.230,-22.461,1.465
1641936873.954,15.625,-36.133,-38.086,-3.418,12.207
1641936873.958,4.395,-30.762,8.789,1.465,16.602
1641936873.962,2.930,-30.762,47.852,-21.973,25.879
1641936873.966,33.203,-36.133,-79.590,-14.160,42.969
1641936873.970,52.246,-44.922,-355.957,7.812,13.184
1641936873.973,41.504,-39.062,-217.285,15.625,21.484
1641936873.977,24.414,-38.086,159.668,13.184,48.340
1641936873.981,17.578,-51.270,83.008,1.465,10.254
1641936873.985,28.320,-48.828,23.438,28.809,9.766
1641936873.989,11.230,-53.711,75.684,41.016,21.973
1641936873.991,-35.156,-60.059,53.223,10.742,8.301
1641936873.995,-49.316,-68.848,-83.008,0.488,-17.578
1641936873.999,-31.738,-70.312,-113.281,15.625,-5.371
1641936874.003,-33.691,-54.688,109.375,35.156,33.203
1641936874.007,-66.895,-60.547,207.031,5.371,40.039
1641936874.011,-96.680,-79.102,-96.680,-28.809,24.414
1641936874.015,-85.938,-80.566,-260.742,-12.207,39.062
1641936874.018,-48.828,-63.477,7.812,19.043,56.152
1641936874.022,-54.688,-67.383,73.242,31.250,40.039
1641936874.026,-69.336,-78.125,-165.039,-6.836,33.203
1641936874.030,-28.320,-78.125,-256.348,-26.855,16.113
1641936874.034,16.113,-82.031,-65.430,8.789,19.531
1641936874.051,22.949,-96.680,-76.172,20.508,61.035
1641936874.055,11.719,-102.051,-142.578,-4.395,41.016
1641936874.059,34.180,-101.074,-189.941,-21.484,52.246
1641936874.063,76.660,-100.586,-301.758,8.301,48.340
1641936874.067,83.984,-99.121,-260.742,33.203,50.293
1641936874.071,45.410,-122.070,-642.090,10.742,42.480
1641936874.075,34.668,-114.746,-812.988,-11.230,-15.137
1641936874.078,69.336,-85.449,-436.523,5.371,21.484
1641936874.082,79.102,-92.285,-470.215,50.293,66.895
1641936874.086,52.734,-103.516,-648.926,61.523,32.715
1641936874.090,36.621,-96.680,-527.832,38.086,18.555
1641936874.094,44.434,-99.121,-354.980,44.922,20.996
1641936874.095,49.805,-104.492,-388.184,75.684,20.508
1641936874.099,26.367,-105.957,-476.074,80.566,19.531
1641936874.103,-3.418,-105.957,-467.773,58.594,47.852
1641936874.107,8.789,-106.445,-431.152,47.852,80.566
1641936874.111,42.969,-101.562,-548.828,77.148,57.129
1641936874.115,46.875,-99.609,-724.609,96.680,43.945
1641936874.119,40.039,-102.539,-673.340,77.637,104.980
1641936874.122,62.500,-103.027,-521.484,56.152,123.535
1641936874.126,89.844,-108.887,-588.379,66.895,68.359
1641936874.130,91.309,-102.051,-875.488,68.848,44.922
1641936874.134,72.754,-84.473,-691.406,36.133,45.898
1641936874.138,65.430,-99.121,-452.148,24.414,23.926
1641936874.140,97.168,-108.398,-452.637,41.992,21.973
1641936874.144,113.770,-98.633,-227.051,68.359,61.035
1641936874.148,81.055,-102.051,2.930,57.617,80.566
1641936874.152,60.059,-116.211,68.848,22.949,20.508
1641936874.156,77.637,-121.582,29.785,23.438,4.883
1641936874.160,89.844,-120.117,-8.301,59.570,51.270
1641936874.164,73.242,-110.840,34.668,68.359,68.848
1641936874.167,56.152,-111.328,170.898,43.457,91.309
1641936874.171,57.617,-131.836,-130.371,41.504,50.293
1641936874.175,80.566,-117.676,-248.535,78.125,-21.973
1641936874.179,87.402,-104.004,130.371,101.562,2.930
1641936874.183,59.082,-117.188,32.227,85.449,20.508
1641936874.185,57.129,-111.328,-111.328,71.777,23.926
1641936874.189,96.680,-103.516,-13.672,94.238,47.852
1641936874.193,93.750,-110.840,-6.348,126.953,43.457
1641936874.197,24.414,-122.559,-125.488,111.328,32.715
1641936874.201,-11.230,-117.676,-197.754,80.566,-6.836
1641936874.205,2.441,-115.723,-254.883,78.613,-38.086
1641936874.209,17.578,-121.582,-300.781,83.496,-33.691
1641936874.212,17.578,-137.695,-438.965,64.941,-14.160
1641936874.216,21.484,-138.184,-651.367,23.438,-1.465
1641936874.220,58.594,-106.934,-421.387,21.973,34.668
1641936874.224,89.355,-103.516,-249.512,52.734,45.898
1641936874.228,73.730,-103.516,-359.863,63.965,79.590
1641936874.230,50.293,-96.680,-446.289,49.805,56.152
1641936874.234,63.477,-98.145,-482.910,45.898,24.414
1641936874.238,90.332,-98.633,-487.793,73.242,67.383
1641936874.242,89.355,-108.398,-588.379,77.637,62.988
1641936874.246,73.730,-103.516,-640.137,68.848,82.031
1641936874.250,74.219,-95.215,-702.637,66.895,55.664
1641936874.254,79.102,-97.168,-827.148,62.988,-5.859
1641936874.257,73.242,-99.609,-932.617,88.379,8.789
1641936874.261,48.828,-92.285,-819.824,83.008,22.949
1641936874.265,26.855,-90.820,-535.156,60.059,17.578
1641936874.269,31.738,-97.656,-590.332,73.242,4.395
1641936874.273,48.828,-92.773,-572.754,102.539,3.906
1641936874.276,49.805,-79.590,-399.414,105.957,-2.930
1641936874.280,40.527,-77.148,-303.223,67.871,-8.301
1641936874.284,58.105,-89.355,-538.574,67.383,-25.391
1641936874.288,98.633,-80.566,-627.441,115.723,-6.836
1641936874.292,104.492,-71.289,-345.215,121.582,4.395
1641936874.296,86.426,-76.172,-345.703,95.215,-6.348
1641936874.300,101.562,-81.543,-575.195,81.543,-23.438
1641936874.303,141.113,-68.848,-602.051,100.586,-3.906
1641936874.307,169.922,-43.945,-209.473,133.789,49.805
1641936874.311,155.762,-52.734,-63.965,124.023,41.016
1641936874.315,138.184,-62.012,-109.863,101.074,24.902
1641936874.319,159.668,-57.129,-74.219,104.492,42.480
1641936874.321,172.363,-56.641,-22.461,129.395,31.250
1641936874.325,142.578,-60.547,-69.336,123.047,-22.949
1641936874.329,110.352,-54.688,-100.098,94.238,-7.324
1641936874.333,119.141,-47.852,-47.363,104.004,21.484
1641936874.337,129.395,-49.805,-5.371,130.371,23.926
1641936874.341,99.609,-58.105,-87.891,137.207,17.090
1641936874.345,59.082,-69.824,-427.246,111.816,39.551
1641936874.348,66.406,-46.875,-469.727,82.031,21.973
1641936874.352,102.051,-21.973,-28.320,101.562,27.344
1641936874.356,89.844,-34.180,18.066,117.188,36.621
1641936874.360,56.641,-37.598,-63.965,89.844,42.969
1641936874.364,63.477,-37.109,47.852,68.359,65.918
1641936874.381,95.215,-40.039,120.605,87.891,69.336
1641936874.385,95.703,-39.551,100.098,104.492,72.266
1641936874.389,78.125,-40.527,11.719,80.566,62.500
1641936874.393,83.984,-37.598,0.977,61.523,14.648
1641936874.397,113.281,-36.133,-1.953,70.801,5.859
1641936874.401,120.605,-47.852,-283.203,90.820,24.414
1641936874.405,102.051,-54.199,-450.684,87.891,-4.883
1641936874.408,92.285,-51.270,-272.461,61.035,-12.207
1641936874.412,109.863,-59.570,-220.215,61.523,-14.648
1641936874.416,125.488,-61.523,-258.789,87.402,-2.441
1641936874.420,99.609,-59.082,-219.238,91.309,29.785
1641936874.424,69.824,-55.176,-46.387,60.547,45.410
1641936874.425,72.754,-55.176,0.000,44.922,48.828
1641936874.429,94.238,-50.293,-59.570,81.543,74.219
1641936874.433,82.520,-39.551,-27.344,100.098,29.297
1641936874.437,43.945,-37.598,53.223,77.637,5.859
1641936874.441,39.551,-41.992,52.246,66.895,16.113
1641936874.445,70.312,-44.434,-35.156,78.613,17.090
1641936874.449,74.219,-41.016,-110.840,92.773,63.477
1641936874.452,49.316,-39.062,43.945,83.984,74.707
1641936874.456,34.668,-51.758,108.398,63.965,46.387
1641936874.460,48.828,-58.594,-229.980,59.082,8.301
1641936874.464,81.055,-44.922,-292.969,81.055,-4.883
1641936874.468,73.730,-40.039,-75.684,90.332,15.625
1641936874.472,47.363,-51.758,-143.555,57.617,17.578
1641936874.476,65.430,-57.617,-270.508,56.152,1.465
1641936874.480,88.379,-46.875,-80.566,78.613,4.395
1641936874.484,64.941,-47.852,14.648,74.707,-1.465
1641936874.488,37.598,-54.199,-143.555,58.594,-20.508
1641936874.492,58.105,-55.176,-273.926,56.152,6.836
1641936874.496,79.102,-55.176,-238.770,83.496,26.367
1641936874.499,52.246,-59.570,-62.012,76.660,37.598
1641936874.503,15.625,-76.172,-219.727,50.781,32.227
1641936874.507,15.137,-72.754,-475.098,49.805,5.371
1641936874.511,60.547,-46.875,-157.715,66.406,35.645
1641936874.515,77.148,-51.758,-31.738,98.633,38.574
1641936874.516,37.598,-58.594,-126.953,86.914,-20.996
1641936874.520,14.648,-54.199,-166.016,51.270,-20.020
1641936874.524,40.527,-46.387,-112.793,59.570,7.324
1641936874.528,62.012,-48.828,-17.090,86.426,-8.789
1641936874.532,41.992,-58.594,-87.891,88.867,-25.879
1641936874.536,12.695,-60.547,-241.699,51.758,-27.344
1641936874.540,23.926,-53.711,-200.195,44.434,20.020
1641936874.543,57.617,-56.641,-66.895,87.402,53.223
1641936874.547,42.480,-62.012,-312.988,89.844,48.828
1641936874.551,17.090,-40.039,-287.598,59.082,48.828
1641936874.555,28.320,-33.203,48.340,45.898,35.645
1641936874.559,45.898,-43.457,-40.527,55.664,38.086
1641936874.560,49.805,-39.062,-151.367,75.195,16.602
1641936874.564,18.555,-28.809,-52.246,60.059,27.344
1641936874.568,0.977,-28.320,-6.348,40.039,58.594
1641936874.572,33.691,-42.480,-171.387,49.805,28.320
1641936874.576,49.805,-50.293,-281.738,71.289,29.785
1641936874.580,23.438,-47.852,-240.234,72.754,50.293
1641936874.584,1.465,-41.016,-273.438,39.551,40.039
1641936874.587,18.555,-45.898,-425.293,38.086,-2.441
1641936874.591,51.270,-50.781,-568.359,66.895,-8.301
1641936874.595,53.223,-27.344,-255.859,70.801,32.227
1641936874.599,31.738,-25.879,11.719,42.969,36.621
1641936874.603,38.574,-34.180,-77.148,31.738,30.762
1641936874.606,60.059,-39.551,-73.242,57.129,70.312
1641936874.610,53.223,-43.457,54.688,66.895,72.266
1641936874.614,31.250,-44.922,51.270,44.434,63.477
1641936874.618,24.902,-51.758,-113.770,27.344,52.246
1641936874.622,53.711,-48.340,-63.965,50.293,38.086
1641936874.626,57.129,-50.293,-78.125,71.777,10.254
1641936874.630,20.996,-50.781,-195.801,49.805,-5.859
1641936874.633,4.883,-53.711,-434.082,23.926,-10.254
1641936874.637,31.250,-35.156,-437.988,33.691,-11.719
1641936874.641,59.082,-18.555,7.324,61.523,46.387
1641936874.645,32.715,-43.945,31.738,57.617,40.039
1641936874.649,4.395,-62.500,-45.410,20.996,67.383
1641936874.650,20.508,-60.547,60.547,21.484,94.727
1641936874.654,49.316,-61.035,71.289,52.734,47.852
1641936874.658,29.297,-65.430,23.438,53.711,70.312
1641936874.662,8.301,-62.012,4.395,23.926,64.941
1641936874.666,29.785,-60.059,79.590,9.766,32.227
1641936874.670,52.734,-59.082,77.148,30.273,60.547
1641936874.674,40.039,-61.035,-129.395,38.086,51.270
1641936874.677,19.531,-62.012,-272.461,20.508,29.297
1641936874.681,33.203,-50.781,-62.012,21.484,24.414
1641936874.685,51.758,-65.430,-32.227,47.852,16.602
1641936874.689,50.781,-68.359,-197.266,70.312,17.090
1641936874.693,32.227,-53.711,-56.641,47.363,40.039
1641936874.695,23.926,-50.293,100.586,13.672,29.785
1641936874.699,36.621,-45.898,78.613,19.531,24.902
1641936874.703,51.270,-44.922,33.203,46.875,42.969
1641936874.707,31.738,-35.645,85.938,51.270,47.852
1641936874.711,9.766,-32.227,147.461,21.484,51.270
1641936874.715,30.273,-43.945,-13.672,11.719,4.883
1641936874.719,59.570,-51.270,-291.992,32.715,15.625
1641936874.722,65.918,-37.109,-139.160,43.945,57.617
1641936874.726,41.504,-37.598,155.273,23.438,29.297
1641936874.730,24.414,-55.664,64.453,3.418,21.484
1641936874.734,37.109,-55.176,40.527,34.668,50.293
1641936874.738,29.297,-48.340,102.539,49.805,8.301
1641936874.741,-10.742,-45.410,62.988,21.484,-32.227
1641936874.745,-20.996,-49.805,-85.449,2.930,-21.973
1641936874.749,9.277,-42.969,-148.926,4.395,-14.160
1641936874.753,20.508,-33.203,32.227,10.254,-20.996
1641936874.757,-2.930,-39.551,118.164,-4.395,-22.949
1641936874.761,-28.320,-51.270,-126.953,-28.809,7.812
1641936874.765,-8.301,-52.734,-378.418,-21.973,48.828
1641936874.768,41.016,-28.320,-123.047,4.395,47.363
1641936874.772,28.809,-25.391,120.605,17.578,54.199
1641936874.776,2.441,-38.086,48.828,-9.277,34.180
1641936874.780,22.949,-36.621,-2.930,-17.090,-10.254
1641936874.784,49.805,-32.715,145.996,24.414,7.812
1641936874.800,32.715,-38.574,190.918,31.250,6.348
1641936874.804,-7.812,-39.551,51.270,7.324,-3.418
1641936874.808,-15.625,-28.320,77.148,-10.254,4.883
1641936874.812,-2.930,-21.484,127.441,8.301,34.668
1641936874.816,-17.578,-22.949,195.312,36.133,61.523
1641936874.820,-67.871,-45.410,-126.953,11.719,0.000
1641936874.824,-88.867,-39.062,-261.230,-17.090,20.020
1641936874.827,-61.035,-27.344,199.219,-8.301,73.730
1641936874.831,-52.734,-40.039,249.023,17.578,62.988
1641936874.835,-67.871,-34.668,151.367,18.555,44.922
1641936874.839,-73.730,-28.809,138.672,-13.184,16.113
1641936874.843,-35.156,-26.855,146.484,-2.441,59.082
1641936874.860,9.766,-28.320,99.609,27.832,60.059
1641936874.864,14.160,-25.879,56.641,33.691,20.508
1641936874.868,13.184,-16.113,125.977,20.996,44.922
1641936874.872,41.504,-21.484,102.539,6.348,33.691
1641936874.876,76.660,-30.273,-11.230,22.949,13.672
1641936874.880,85.449,-35.156,-160.156,34.180,7.812
1641936874.884,62.012,-30.762,-240.723,16.602,0.488
1641936874.887,61.035,-17.090,-108.398,8.789,23.926
1641936874.891,80.078,-22.949,-153.809,28.320,6.836
1641936874.895,68.359,-24.902,-490.723,38.086,-43.945
1641936874.899,41.504,-1.465,-240.234,17.578,12.207
1641936874.903,14.160,-12.207,-2.441,1.465,47.852
1641936874.890,23.926,-15.625,-129.395,20.020,30.273
1641936874.894,36.133,-1.465,-86.426,44.922,32.227
1641936874.898,7.812,-3.906,20.508,36.621,42.969
1641936874.902,-20.020,-18.066,-58.594,6.348,67.871
1641936874.906,-5.859,-25.879,-131.348,8.789,55.664
1641936874.910,17.578,-30.273,-222.656,37.109,32.715
1641936874.914,11.719,-28.320,-204.102,41.504,31.250
1641936874.917,-7.812,-30.762,-114.258,16.602,8.301
1641936874.921,6.836,-37.598,-229.492,4.395,-6.348
1641936874.925,53.223,-26.367,-196.777,29.297,-7.812
1641936874.929,70.312,-19.531,5.859,48.340,40.039
1641936874.933,49.805,-29.785,18.555,30.273,33.691
1641936874.936,45.898,-41.016,-395.508,10.254,-17.578
1641936874.940,82.031,-18.555,-327.637,32.715,13.672
1641936874.944,92.285,-7.812,91.309,63.965,23.438
1641936874.948,62.988,-16.113,4.883,55.664,-2.930
1641936874.952,54.688,-6.836,-22.461,34.180,13.672
1641936874.956,75.195,-11.719,-65.918,41.016,52.734
1641936874.960,85.449,-10.742,-50.293,58.105,59.082
1641936874.963,47.852,-20.508,-137.695,56.152,21.484
1641936874.967,12.695,-21.973,-351.562,32.227,-9.277
1641936874.971,30.762,-5.859,-124.512,19.043,9.766
1641936874.975,53.223,-11.230,67.383,49.316,62.012
1641936874.979,33.691,-17.578,-15.137,61.523,59.570
1641936874.980,4.395,-18.066,-39.551,37.598,29.297
1641936874.984,14.648,-22.949,59.082,26.855,64.453
1641936874.988,41.992,-23.926,57.617,49.805,97.168
1641936874.992,45.410,-22.949,-89.355,69.824,68.359
1641936874.996,30.762,-20.020,-74.219,51.758,66.406
1641936875.000,27.344,-22.949,-27.344,35.645,67.871
1641936875.004,51.270,-26.367,-70.801,53.223,38.574
1641936875.007,66.895,-26.367,-224.609,79.590,12.695
1641936875.011,35.156,-18.066,-136.719,67.383,69.824
1641936875.015,-3.906,-10.742,177.246,38.574,60.547
1641936875.019,-3.418,-20.996,71.777,43.945,8.789
1641936875.023,2.930,-16.602,46.875,56.641,29.785
1641936875.025,-14.648,-14.160,148.438,44.434,26.367
1641936875.029,-28.809,-20.508,227.051,5.371,52.734
1641936875.033,-14.160,-32.715,55.664,-11.719,58.594
1641936875.037,19.531,-23.926,-69.336,24.902,41.992
1641936875.041,28.320,-6.836,165.039,55.664,49.805
1641936875.045,11.719,-15.137,70.312,45.410,40.527
1641936875.049,18.555,-13.184,-225.586,31.250,8.301
1641936875.052,54.199,-3.906,-316.895,51.758,-2.930
1641936875.056,73.242,7.324,-22.949,82.031,11.230
1641936875.060,45.410,-7.324,122.070,65.918,24.414
1641936875.064,24.902,-15.625,34.668,42.480,29.785
1641936875.068,41.016,-11.230,61.035,46.875,34.180
1641936875.071,47.363,-16.602,147.949,60.547,66.895
1641936875.075,10.254,-19.531,121.094,59.570,71.289
1641936875.079,-16.602,-13.672,65.430,30.273,50.781
1641936875.083,5.859,-9.277,116.699,29.297,50.781
1641936875.087,27.344,-10.742,122.070,52.734,28.320
1641936875.091,7.812,-18.555,70.312,53.711,26.367
1641936875.095,-17.578,-34.180,-291.992,25.879,0.977
1641936875.098,0.977,-12.695,-430.176,1.953,-83.008
