timestamps,TP9,AF7,AF8,TP10,Right AUX
1642553904.781,-8.301,30.273,30.762,20.508,-33.203
1642553904.785,14.648,25.391,42.969,39.551,-33.691
1642553904.789,23.438,29.297,20.996,24.902,-35.645
1642553904.793,6.348,30.762,23.926,30.273,-54.688
1642553904.797,-4.395,21.973,51.270,40.527,-8.301
1642553904.801,5.371,20.020,36.621,31.250,18.555
1642553904.805,23.438,30.762,28.320,36.133,15.625
1642553904.808,11.230,36.133,37.598,36.133,4.395
1642553904.812,4.395,28.809,72.266,28.320,29.297
1642553904.816,14.648,30.762,64.453,26.367,67.383
1642553904.820,22.949,34.180,49.805,22.949,46.875
1642553904.824,36.621,31.250,56.641,31.250,47.852
1642553904.824,36.621,31.250,56.641,31.250,47.852
1642553904.825,35.156,36.133,55.176,29.785,73.730
1642553904.829,22.461,30.762,50.293,16.602,44.434
1642553904.833,13.184,26.855,47.852,19.043,26.367
1642553904.837,15.137,25.879,56.152,24.902,2.930
1642553904.841,12.695,23.438,58.105,34.180,28.320
1642553904.845,5.371,24.902,45.898,36.621,46.875
1642553904.849,15.137,31.250,24.902,37.109,6.836
1642553904.852,34.668,32.715,47.363,34.668,5.859
1642553904.856,29.785,29.785,82.031,41.504,11.230
1642553904.860,15.137,20.996,56.641,50.781,-3.418
1642553904.864,15.625,18.066,40.527,41.992,-7.812
1642553904.868,20.020,14.160,51.758,38.086,8.301
1642553904.870,20.508,12.207,49.805,39.062,12.207
1642553904.874,32.227,19.531,32.715,46.387,1.465
1642553904.878,24.414,28.809,28.320,39.062,-0.488
1642553904.882,16.602,38.574,34.668,12.695,20.020
1642553904.886,37.109,38.574,30.762,5.859,17.090
1642553904.890,38.086,36.133,-1.953,12.695,-21.973
1642553904.894,23.438,30.273,2.441,14.160,-23.926
1642553904.897,17.578,29.785,56.152,11.230,28.809
1642553904.901,9.766,33.203,68.359,14.648,69.824
1642553904.905,-1.465,28.809,14.648,15.625,55.176
1642553904.909,-5.371,32.715,0.000,11.719,49.805
1642553904.913,1.953,31.738,41.992,12.207,80.566
1642553904.930,8.301,39.551,25.391,9.277,85.449
1642553904.934,14.160,43.457,9.766,16.602,116.699
1642553904.938,2.441,28.809,6.836,14.648,102.539
1642553904.942,0.488,23.926,12.695,17.578,64.453
1642553904.946,27.344,23.926,18.555,31.250,65.918
1642553904.950,22.461,31.250,6.836,27.344,47.363
1642553904.954,-12.207,35.645,13.672,5.371,50.293
1642553904.957,4.395,27.832,29.785,4.395,50.293
1642553904.961,28.809,37.109,18.555,12.207,31.738
1642553904.965,2.930,39.062,-6.836,-1.465,-1.465
1642553904.969,0.000,24.902,23.926,-2.441,-7.812
1642553904.973,22.949,22.949,45.410,10.254,-4.883
1642553904.974,18.555,31.738,20.508,6.836,-9.766
1642553904.978,18.555,32.715,22.461,3.418,-17.090
1642553904.982,21.484,39.551,27.832,7.324,-24.902
1642553904.986,22.461,42.480,28.320,6.348,-6.348
1642553904.990,20.508,39.062,16.602,5.859,-4.395
1642553904.994,22.949,32.227,7.324,9.277,-16.602
1642553904.998,22.949,29.785,12.695,15.625,-40.039
1642553905.001,4.883,33.203,27.344,10.742,-61.035
1642553905.005,-1.953,32.227,5.859,12.207,-24.902
1642553905.009,27.832,40.527,2.441,39.062,7.324
1642553905.013,23.926,44.922,43.945,21.484,23.438
1642553905.017,0.977,33.203,20.996,8.301,29.785
1642553905.019,12.695,15.625,7.324,26.855,7.324
1642553905.023,30.762,11.230,23.926,30.273,16.113
1642553905.027,45.898,22.949,29.785,40.527,71.777
1642553905.031,27.832,30.273,20.508,35.645,62.012
1642553905.035,22.461,29.785,11.230,23.926,15.625
1642553905.039,30.273,28.809,19.531,21.484,39.551
1642553905.043,22.461,30.762,37.109,16.602,72.266
1642553905.046,22.949,24.902,47.852,31.250,44.434
1642553905.050,2.441,41.016,15.625,28.320,31.250
1642553905.054,4.395,41.016,19.531,12.695,51.758
1642553905.058,36.133,24.902,31.250,26.367,52.734
1642553905.062,36.621,18.555,9.277,40.039,-1.465
1642553905.066,25.879,21.484,26.367,28.320,-1.953
1642553905.070,24.902,31.738,34.668,20.020,35.645
1642553905.074,32.227,31.738,18.555,20.508,15.137
1642553905.078,41.016,29.785,2.930,22.949,0.000
1642553905.082,39.062,28.809,5.859,36.621,16.113
1642553905.086,20.020,31.738,17.090,20.020,40.039
1642553905.090,23.438,27.344,20.508,5.859,44.922
1642553905.093,28.320,23.438,4.395,13.672,5.859
1642553905.097,25.391,27.344,3.418,20.996,17.578
1642553905.101,22.461,30.762,44.434,19.043,54.688
1642553905.105,20.020,24.902,37.598,10.742,50.293
1642553905.109,33.203,22.949,22.461,16.113,54.688
1642553905.111,52.246,19.531,23.438,31.250,25.879
1642553905.115,36.621,10.254,27.344,21.484,41.016
1642553905.119,29.785,19.043,13.184,12.207,41.016
1642553905.123,45.898,24.902,17.578,21.484,3.906
1642553905.127,45.898,25.879,34.668,25.391,9.277
1642553905.131,30.762,35.645,25.391,12.695,19.531
1642553905.135,35.156,42.480,20.508,24.902,12.207
1642553905.138,67.871,34.668,-1.953,49.316,-15.625
1642553905.142,88.867,25.879,29.785,62.012,-16.113
1642553905.146,51.758,17.578,80.078,49.805,14.648
1642553905.150,17.090,11.230,48.340,26.367,15.137
1642553905.154,20.996,21.973,30.273,16.602,0.488
1642553905.155,35.645,20.508,47.363,28.320,-1.465
1642553905.159,31.738,15.625,49.316,47.852,6.836
1642553905.163,17.090,23.438,31.250,39.062,-5.371
1642553905.167,33.691,35.156,31.250,25.391,-29.785
1642553905.171,51.270,34.180,37.598,37.109,1.953
1642553905.175,32.715,26.367,21.973,28.320,0.000
1642553905.179,3.906,25.879,17.090,20.996,-17.090
1642553905.182,22.461,19.043,34.668,31.738,-14.648
1642553905.186,37.109,14.648,72.266,26.367,29.297
1642553905.190,34.180,18.555,76.660,35.156,45.898
1642553905.194,17.578,28.809,44.922,29.297,8.301
1642553905.198,12.695,32.715,45.898,14.648,9.277
1642553905.200,18.555,28.320,54.688,11.230,41.992
1642553905.204,19.043,27.832,46.875,27.832,60.059
1642553905.208,26.367,25.879,40.527,37.109,17.090
1642553905.212,18.066,18.555,36.133,19.531,10.254
1642553905.216,16.602,19.531,26.367,15.625,31.250
1642553905.220,27.832,24.902,13.672,29.297,26.367
1642553905.224,23.438,19.531,6.836,34.180,11.719
1642553905.227,26.367,25.391,34.180,22.949,16.113
1642553905.231,43.945,28.809,56.152,22.461,33.203
1642553905.235,57.617,20.508,41.504,40.527,20.996
1642553905.239,63.965,25.391,44.922,45.410,22.461
1642553905.243,50.781,23.926,65.918,37.598,25.879
1642553905.246,50.781,19.043,58.594,34.668,34.180
1642553905.250,62.012,23.438,25.879,34.180,40.039
1642553905.254,58.105,23.438,25.391,39.551,64.453
1642553905.258,44.434,20.996,40.039,38.574,56.152
1642553905.262,35.156,20.020,33.203,37.598,35.645
1642553905.266,33.691,25.391,-0.977,36.621,12.207
1642553905.270,32.715,24.414,10.254,39.551,-29.785
1642553905.273,34.668,24.414,49.316,38.574,-35.645
1642553905.277,28.809,33.203,51.270,32.227,6.348
1642553905.281,21.973,40.039,28.809,22.949,8.301
1642553905.285,39.062,33.691,34.668,21.973,26.367
1642553905.289,41.016,31.738,47.363,25.391,87.402
1642553905.306,21.973,30.273,36.133,15.137,88.379
1642553905.310,29.785,29.297,38.086,17.578,101.562
1642553905.314,43.945,33.203,38.574,26.855,83.496
1642553905.318,46.387,25.391,54.199,28.320,38.086
1642553905.322,31.250,27.832,57.129,23.926,47.363
1642553905.326,27.832,32.227,16.113,23.438,-3.906
1642553905.330,34.180,27.344,28.809,24.902,-34.668
1642553905.333,29.297,28.809,65.918,20.996,-5.371
1642553905.337,11.719,29.297,37.109,18.555,-8.301
1642553905.341,5.371,25.879,24.414,21.973,4.395
1642553905.345,23.926,25.391,49.316,18.555,27.832
1642553905.349,28.320,30.762,49.805,18.066,17.578
1642553905.350,13.672,32.227,44.922,27.344,4.395
1642553905.354,4.395,24.902,45.898,26.367,46.387
1642553905.358,15.625,22.461,51.758,23.438,44.922
1642553905.362,33.203,23.926,48.828,30.762,27.832
1642553905.366,23.438,29.297,19.531,34.180,10.254
1642553905.370,10.742,40.527,9.277,34.180,-30.762
1642553905.374,20.020,48.828,39.062,26.855,-10.742
1642553905.377,36.621,42.480,56.152,28.809,-11.719
1642553905.381,28.320,38.086,13.672,31.738,-37.598
1642553905.385,20.020,29.785,10.254,37.598,-33.203
1642553905.389,40.527,29.785,47.852,45.410,-16.602
1642553905.393,49.316,38.086,30.762,36.133,-24.902
1642553905.396,47.363,38.086,28.809,36.621,7.324
1642553905.400,28.320,35.645,38.574,44.434,10.254
1642553905.404,15.625,35.156,53.223,36.133,4.395
1642553905.408,19.043,35.645,44.434,20.508,27.832
1642553905.412,19.531,38.086,28.320,23.438,37.109
1642553905.416,24.414,36.133,29.297,39.551,61.035
1642553905.420,30.762,32.715,28.320,48.340,41.504
1642553905.423,44.922,41.992,33.691,51.758,19.043
1642553905.427,33.691,53.223,5.859,34.180,-1.953
1642553905.431,18.066,48.828,8.301,16.602,-50.293
1642553905.435,19.531,42.969,46.387,20.508,-35.156
1642553905.439,24.414,42.480,24.902,30.273,-32.227
1642553905.440,35.645,40.039,14.160,42.480,-34.668
1642553905.444,30.273,32.227,43.457,39.551,20.996
1642553905.448,12.207,29.785,45.410,25.879,39.062
1642553905.452,2.441,34.668,14.160,17.090,21.484
1642553905.456,17.090,37.598,13.672,13.672,19.531
1642553905.460,32.227,35.645,17.090,23.926,18.555
1642553905.464,28.320,33.203,20.996,30.762,34.668
1642553905.467,14.648,34.668,5.859,16.602,61.523
1642553905.471,16.602,32.227,5.859,4.883,41.016
1642553905.475,34.668,35.645,40.527,19.043,54.688
1642553905.479,31.250,40.039,34.180,26.367,61.523
1642553905.483,23.926,37.598,22.949,11.230,2.930
1642553905.485,35.156,34.668,38.574,13.672,-9.766
1642553905.489,50.293,31.738,50.781,25.391,15.625
1642553905.493,53.711,31.738,41.992,28.320,41.016
1642553905.497,39.062,39.062,33.691,30.273,66.895
1642553905.501,41.992,42.480,27.344,28.809,17.090
1642553905.505,47.363,42.969,27.832,30.762,-5.859
1642553905.509,41.504,44.434,34.180,40.039,35.156
1642553905.512,28.809,44.922,21.973,36.621,24.414
1642553905.516,23.926,46.387,38.086,28.320,10.742
1642553905.520,33.691,42.480,65.918,30.762,78.613
1642553905.524,38.086,32.715,49.316,34.668,77.637
1642553905.528,33.203,32.715,32.227,30.762,42.969
1642553905.531,28.320,39.551,28.809,32.227,52.246
1642553905.535,41.504,37.109,38.086,32.227,61.523
1642553905.539,52.734,33.203,33.203,33.203,46.387
1642553905.543,45.410,38.574,32.227,41.016,9.277
1642553905.547,34.180,43.457,60.059,26.367,39.062
1642553905.551,29.785,44.922,40.039,14.648,32.715
1642553905.555,28.320,41.016,3.906,13.184,-1.465
1642553905.558,25.879,40.527,6.348,8.789,-12.207
1642553905.562,24.902,35.645,45.410,11.719,0.488
1642553905.566,27.344,32.227,45.410,7.324,30.762
1642553905.570,33.691,35.645,41.992,8.301,27.344
1642553905.574,36.133,34.668,53.711,18.555,-13.184
1642553905.575,20.508,34.180,60.059,20.020,17.090
1642553905.579,4.883,32.715,42.480,15.625,44.434
1642553905.583,8.301,32.227,28.320,10.254,0.000
1642553905.587,20.508,33.691,36.133,15.625,7.324
1642553905.591,20.996,31.250,47.363,25.879,64.453
1642553905.595,11.230,25.391,27.832,22.949,48.828
1642553905.599,5.859,21.484,-9.766,17.090,-26.855
1642553905.602,20.996,23.438,10.742,24.414,-14.160
1642553905.606,31.738,28.809,61.523,34.180,55.176
1642553905.610,21.484,33.203,39.062,33.691,76.172
1642553905.614,28.320,35.645,30.273,30.762,35.645
1642553905.618,40.527,36.133,50.781,32.715,21.973
1642553905.636,36.133,33.691,45.898,34.180,31.250
1642553905.640,28.809,25.879,26.367,28.809,23.926
1642553905.644,30.762,26.367,21.973,22.461,-0.977
1642553905.648,43.945,32.715,41.992,28.320,25.879
1642553905.652,55.176,32.227,41.992,35.645,53.711
1642553905.656,41.504,33.203,8.789,30.273,22.461
1642553905.660,19.531,35.645,4.395,19.531,0.977
1642553905.663,29.297,40.039,27.832,18.066,20.996
1642553905.667,42.480,38.574,41.016,24.414,10.254
1642553905.671,27.832,35.645,16.602,20.508,0.977
1642553905.675,7.324,35.645,3.418,11.230,8.789
1642553905.679,12.695,30.273,32.227,7.324,24.902
1642553905.680,21.973,23.926,22.949,9.277,26.855
1642553905.684,15.625,30.762,14.160,15.625,29.785
1642553905.688,9.766,37.109,24.414,18.555,76.660
1642553905.692,18.066,41.504,26.855,15.625,35.645
1642553905.696,29.297,37.598,22.461,13.672,-12.207
1642553905.700,22.461,29.297,11.230,19.531,5.371
1642553905.704,8.789,30.762,12.695,20.508,7.812
1642553905.707,15.625,29.785,37.598,12.695,7.324
1642553905.711,30.762,20.508,40.039,13.672,14.648
1642553905.715,28.320,18.555,1.953,24.902,-27.344
1642553905.719,20.996,26.855,31.738,28.320,-17.578
1642553905.723,17.578,35.156,65.918,20.508,6.348
1642553905.725,26.855,38.574,33.691,21.973,-11.230
1642553905.729,35.156,42.480,23.438,28.809,11.230
1642553905.733,37.598,38.574,37.109,34.668,10.254
1642553905.737,22.461,30.273,41.016,26.855,12.695
1642553905.741,12.695,30.762,26.367,17.090,20.508
1642553905.745,30.273,30.273,24.414,22.461,5.371
1642553905.749,35.645,33.691,28.320,19.043,8.301
1642553905.752,31.738,30.762,39.551,19.531,35.645
1642553905.756,29.297,31.250,19.531,20.508,-5.371
1642553905.760,41.992,33.691,16.113,21.973,-78.125
1642553905.764,58.105,38.086,60.547,37.598,-39.062
1642553905.768,38.574,41.992,38.574,30.762,1.953
1642553905.770,24.902,39.062,30.762,20.996,4.883
1642553905.774,35.645,41.016,62.988,29.297,7.324
1642553905.778,50.781,41.992,63.965,35.645,53.223
1642553905.782,42.969,37.109,46.875,33.691,34.180
1642553905.786,24.414,31.738,36.621,25.391,6.836
1642553905.790,36.621,30.762,30.273,24.902,11.719
1642553905.794,51.270,33.691,50.781,25.879,20.508
1642553905.797,46.387,35.156,59.570,30.273,40.039
1642553905.801,22.461,35.156,13.672,29.785,11.719
1642553905.805,19.531,37.109,23.438,22.949,2.930
1642553905.809,32.227,38.574,54.688,27.344,17.090
1642553905.813,25.391,32.715,27.832,31.738,21.973
1642553905.815,19.531,32.715,7.812,26.855,5.371
1642553905.819,18.555,37.109,10.742,21.484,0.488
1642553905.823,32.227,37.598,9.766,26.367,14.648
1642553905.827,36.621,27.344,-2.441,36.133,-9.277
1642553905.831,22.949,25.391,-0.977,26.855,-17.578
1642553905.835,19.043,34.180,13.184,18.066,-4.395
1642553905.839,33.203,32.715,28.809,20.508,-6.348
1642553905.842,39.551,35.645,10.254,19.043,-40.527
1642553905.846,26.855,37.598,13.184,12.695,-50.781
1642553905.850,14.648,32.715,52.734,3.906,-16.113
1642553905.854,18.555,35.156,37.598,7.812,4.883
1642553905.858,28.809,35.645,26.367,16.602,57.129
1642553905.860,25.879,33.203,20.996,26.855,52.734
1642553905.864,20.508,30.762,14.160,25.391,20.508
1642553905.868,24.414,29.297,13.672,22.461,31.738
1642553905.872,37.109,36.133,16.113,31.250,35.156
1642553905.876,38.086,43.945,7.324,36.133,24.414
1642553905.880,10.742,48.828,-0.488,28.809,52.246
1642553905.884,2.930,45.898,12.207,26.367,90.332
1642553905.887,10.254,37.109,-8.789,26.855,48.828
1642553905.891,7.812,31.738,9.277,22.949,29.785
1642553905.895,4.883,36.133,52.246,23.926,51.758
1642553905.899,-8.789,32.715,26.855,21.484,32.715
1642553905.903,5.371,23.438,24.902,23.926,29.785
1642553905.905,28.320,27.832,55.176,40.039,54.688
1642553905.909,28.320,30.273,58.105,42.969,64.453
1642553905.913,27.832,32.715,29.297,36.133,25.391
1642553905.917,50.781,32.227,24.414,45.410,26.855
1642553905.921,47.363,23.926,48.340,41.504,45.898
1642553905.925,10.254,20.020,42.969,18.066,27.832
1642553905.929,-16.113,17.090,28.320,5.859,35.156
1642553905.932,-16.602,18.066,27.832,2.930,21.973
1642553905.936,19.531,20.996,63.965,22.461,44.922
1642553905.940,31.250,22.949,79.590,37.598,90.820
1642553905.944,16.602,26.367,46.387,29.297,27.832
1642553905.948,18.066,28.809,45.410,20.020,-11.230
1642553905.950,34.180,26.855,68.359,16.602,34.668
1642553905.954,42.480,24.414,62.012,29.297,49.805
1642553905.958,26.855,25.391,47.363,30.273,29.785
1642553905.962,15.137,26.855,51.270,16.602,25.391
1642553905.966,28.320,22.461,56.152,21.973,-9.277
1642553905.970,34.668,27.344,48.340,29.297,-1.953
1642553905.974,19.043,35.645,29.297,22.461,24.414
1642553905.977,6.836,34.180,48.828,20.996,6.836
1642553905.981,6.836,32.715,77.637,25.879,3.418
1642553905.985,17.578,26.855,50.781,26.367,30.762
1642553905.989,24.902,24.414,29.297,26.855,16.113
1642553905.993,17.090,31.250,41.504,25.391,-4.883
1642553905.996,11.719,35.156,53.223,16.602,6.836
1642553906.000,24.414,37.598,32.227,14.648,11.719
1642553906.004,35.645,38.086,44.922,33.691,11.230
1642553906.008,31.738,33.691,78.125,44.434,9.277
1642553906.012,28.320,31.738,68.359,35.156,24.902
1642553906.016,31.738,26.855,29.785,30.273,8.301
1642553906.020,38.574,26.855,18.555,31.738,7.812
1642553906.023,31.738,23.438,60.547,30.273,26.855
1642553906.027,16.602,17.578,63.477,16.602,20.508
1642553906.031,20.508,22.949,41.504,15.137,-1.465
1642553906.035,32.227,34.180,43.945,25.879,-13.672
1642553906.039,28.320,35.156,49.316,24.902,0.000
1642553906.055,13.184,30.762,36.621,19.043,-10.742
1642553906.059,20.508,32.227,22.949,23.926,-34.180
1642553906.063,27.832,26.367,26.855,29.297,1.465
1642553906.067,25.879,23.926,42.480,32.227,64.453
1642553906.071,33.691,26.855,34.180,36.133,79.590
1642553906.075,26.367,22.949,-14.648,29.785,7.812
1642553906.079,31.250,20.508,4.395,24.902,-21.973
1642553906.082,40.527,26.367,59.082,32.715,31.738
1642553906.086,21.484,32.715,35.645,30.762,41.992
1642553906.090,11.719,32.715,17.578,19.531,18.555
1642553906.094,20.996,32.227,36.133,20.508,0.000
1642553906.098,35.645,35.645,36.133,26.367,-21.484
1642553906.100,33.691,37.598,23.926,32.715,-19.531
1642553906.104,20.508,32.715,31.250,24.414,12.695
1642553906.108,27.832,29.785,46.875,17.090,37.109
1642553906.112,38.574,31.250,47.363,30.273,28.809
1642553906.116,30.762,31.738,25.391,36.133,4.883
1642553906.120,21.484,33.203,22.949,30.273,-2.930
1642553906.124,27.344,29.785,39.551,20.996,-16.602
1642553906.127,35.156,30.273,47.852,21.973,0.000
1642553906.131,35.645,32.227,29.297,23.438,10.742
1642553906.135,31.738,29.297,19.531,20.996,-26.367
1642553906.139,37.109,35.156,58.105,28.809,-25.391
1642553906.143,37.598,36.133,49.316,26.367,-21.484
1642553906.145,32.227,28.320,35.156,25.879,-16.602
1642553906.149,24.414,26.855,42.969,25.391,17.578
1642553906.153,12.695,27.344,33.691,19.043,20.508
1642553906.157,18.066,27.344,23.926,20.996,-18.555
1642553906.161,26.855,25.391,25.391,27.344,-7.812
1642553906.165,20.020,23.438,19.531,31.738,-11.230
1642553906.169,17.578,24.414,25.879,24.414,20.020
1642553906.172,22.949,23.926,28.809,15.625,62.500
1642553906.176,35.156,32.227,7.812,28.320,42.969
1642553906.180,46.387,42.480,25.391,27.344,22.949
1642553906.184,35.645,32.715,54.199,16.602,33.691
1642553906.188,28.809,25.879,17.578,9.766,46.387
1642553906.189,43.457,28.320,18.555,17.090,51.758
1642553906.193,44.922,32.715,48.828,27.344,58.594
1642553906.197,33.691,39.551,38.574,22.949,62.988
1642553906.201,28.320,41.504,16.602,18.555,4.395
1642553906.205,32.227,39.551,18.555,20.996,-8.301
1642553906.209,35.645,31.738,19.531,31.250,38.086
1642553906.213,31.738,27.344,35.645,37.109,61.523
1642553906.216,21.484,32.227,26.367,28.320,51.270
1642553906.220,29.297,35.645,13.184,24.902,7.812
1642553906.224,47.852,33.203,46.387,39.551,2.930
1642553906.228,41.016,31.250,41.016,44.434,12.207
1642553906.232,28.809,32.227,28.809,31.250,8.789
1642553906.235,32.227,32.715,34.668,27.832,10.254
1642553906.239,39.062,42.480,45.898,36.133,4.883
1642553906.243,31.738,43.457,29.297,35.645,-11.230
1642553906.247,10.742,34.180,18.555,31.738,9.277
1642553906.251,11.719,31.738,19.043,28.809,15.625
1642553906.255,28.320,29.297,10.254,31.738,0.977
1642553906.259,23.438,24.902,23.438,35.156,-19.531
1642553906.262,0.000,21.484,17.090,28.320,-29.785
1642553906.266,-1.465,25.391,30.762,19.043,-12.695
1642553906.270,13.672,28.320,53.223,14.160,21.484
1642553906.274,15.137,22.461,26.855,13.184,37.598
1642553906.278,10.742,24.414,13.184,9.277,43.457
1642553906.281,6.348,27.344,0.488,-1.465,20.996
1642553906.285,20.020,25.879,1.953,-4.395,1.465
1642553906.289,32.227,30.273,6.836,4.395,0.488
1642553906.293,31.738,34.668,10.742,11.719,2.441
1642553906.297,32.227,31.738,23.926,12.207,9.277
1642553906.301,33.691,30.273,5.859,9.277,11.719
1642553906.305,41.504,28.809,-9.277,13.672,-5.859
1642553906.308,37.598,17.578,2.441,24.414,-26.367
1642553906.312,24.902,19.043,45.410,27.344,-3.418
1642553906.316,23.438,22.461,46.387,31.738,9.766
1642553906.320,48.340,25.391,33.203,50.781,8.789
1642553906.324,54.199,40.039,41.504,63.965,34.668
1642553906.326,25.879,48.828,46.387,38.574,23.438
1642553906.330,12.207,42.969,34.668,14.648,14.648
1642553906.334,28.809,38.574,19.531,26.855,27.344
1642553906.338,38.086,33.203,20.020,38.086,20.508
1642553906.342,22.461,31.250,31.738,41.504,29.297
1642553906.346,10.742,36.621,27.832,39.551,34.668
1642553906.350,4.395,35.156,-9.766,21.973,1.465
1642553906.353,14.648,27.344,10.254,18.555,32.227
1642553906.357,23.438,30.273,62.012,29.785,124.512
1642553906.361,7.324,38.086,29.297,26.855,73.730
1642553906.365,-1.953,34.668,11.230,14.160,24.902
1642553906.369,8.301,33.203,24.902,14.160,40.039
1642553906.385,12.207,34.180,32.227,20.508,49.805
1642553906.389,-3.906,28.809,21.484,18.555,41.504
1642553906.393,-1.465,21.973,17.090,18.555,-8.789
1642553906.397,14.160,25.391,37.109,19.043,-0.488
1642553906.401,20.020,32.715,32.715,23.438,32.715
1642553906.405,9.277,34.668,-1.953,20.996,48.828
1642553906.409,-1.465,39.551,-7.812,6.836,11.230
1642553906.412,13.184,40.039,33.203,4.883,3.906
1642553906.416,20.996,33.691,41.016,9.766,-17.578
1642553906.420,9.766,29.297,16.113,11.230,-24.414
1642553906.424,5.859,32.715,14.160,5.371,-5.371
1642553906.428,14.648,37.109,34.668,4.395,-32.227
1642553906.429,16.602,32.227,29.297,11.230,-13.672
1642553906.433,15.137,37.109,26.367,17.090,63.965
1642553906.437,8.301,33.203,18.066,20.508,58.105
1642553906.441,6.348,23.438,24.414,16.602,52.246
1642553906.445,19.043,25.879,18.555,20.508,64.941
1642553906.449,21.484,29.297,2.930,33.691,11.719
1642553906.453,11.719,30.273,13.184,33.203,11.230
1642553906.456,7.812,26.855,22.461,22.461,14.648
1642553906.460,18.066,26.367,22.949,19.043,2.930
1642553906.464,23.438,33.203,-13.184,24.902,-48.340
1642553906.468,17.578,40.527,1.953,31.250,-63.965
1642553906.472,14.648,42.969,45.410,25.879,4.395
1642553906.475,30.762,40.527,17.090,16.113,14.648
1642553906.479,41.504,37.598,9.766,18.555,-25.879
1642553906.483,32.715,40.039,31.250,25.391,-9.766
1642553906.487,20.508,44.434,25.879,19.043,35.156
1642553906.491,21.484,43.945,11.230,19.043,-15.137
1642553906.495,36.621,45.898,6.348,23.438,-58.594
1642553906.499,38.574,46.875,13.672,27.832,-52.246
1642553906.502,27.344,40.039,32.227,32.227,-29.297
1642553906.506,25.391,32.715,9.277,28.809,7.812
1642553906.510,29.785,33.203,-0.977,26.855,-9.766
1642553906.514,41.504,37.598,45.410,30.273,-21.973
1642553906.518,36.133,37.598,36.133,33.203,18.066
1642553906.519,25.391,33.691,9.766,24.414,3.906
1642553906.523,32.715,31.250,31.250,17.090,-9.277
1642553906.527,43.457,33.203,55.176,24.414,43.457
1642553906.531,29.785,35.156,52.246,24.902,49.316
1642553906.535,14.648,29.785,45.410,19.531,21.973
1642553906.539,36.621,23.926,30.762,34.180,6.836
1642553906.543,57.617,33.691,51.270,46.387,-6.836
1642553906.546,27.832,45.410,62.012,20.996,0.977
1642553906.550,-7.324,33.691,17.090,-6.836,-3.906
1642553906.554,12.207,25.879,31.250,-0.488,-16.602
1642553906.558,48.340,30.762,62.012,20.508,28.809
1642553906.562,40.527,27.344,39.062,22.461,27.344
1642553906.564,16.602,25.879,29.785,10.742,-4.883
1642553906.568,15.137,31.250,41.016,0.000,-10.742
1642553906.572,25.391,34.180,33.691,3.418,-8.789
1642553906.576,32.227,42.969,12.695,16.113,14.648
1642553906.580,27.832,41.016,20.996,19.531,43.945
1642553906.584,22.461,37.109,30.762,10.742,27.832
1642553906.588,27.832,37.109,33.691,11.719,-0.977
1642553906.591,24.414,30.273,21.484,21.484,3.418
1642553906.595,19.531,28.320,16.602,22.949,-29.785
1642553906.599,16.113,28.320,57.129,19.531,-19.531
1642553906.603,17.090,28.809,52.734,16.113,22.949
1642553906.607,33.691,31.250,38.086,22.461,12.207
1642553906.610,32.715,34.668,42.969,28.320,-42.969
1642553906.614,11.719,37.598,50.781,25.879,-56.641
1642553906.618,7.812,32.715,42.480,20.020,-68.848
1642553906.622,17.090,37.109,39.551,27.832,-59.570
1642553906.626,19.531,42.480,49.316,35.156,4.883
1642553906.630,4.395,39.551,37.109,24.902,-5.859
1642553906.634,-2.930,36.621,29.785,20.020,-47.363
1642553906.637,9.766,37.598,17.578,26.367,-46.387
1642553906.641,23.926,31.738,38.086,29.785,-44.922
1642553906.645,20.996,23.438,74.707,22.949,-10.254
1642553906.649,16.113,23.926,45.898,13.184,34.180
1642553906.653,31.250,32.715,38.574,18.066,22.461
1642553906.655,44.434,38.086,62.988,30.273,19.043
1642553906.659,29.785,32.227,52.246,32.715,17.578
1642553906.663,8.789,28.320,17.090,24.902,-28.809
1642553906.667,7.812,32.715,25.879,24.414,-45.410
1642553906.671,15.137,32.227,41.504,31.250,-30.762
1642553906.675,20.508,27.344,37.109,36.621,-18.066
1642553906.679,11.719,23.438,32.227,34.668,-30.762
1642553906.682,18.066,25.879,35.645,28.809,-3.906
1642553906.686,41.504,32.715,62.500,31.738,9.277
1642553906.690,52.734,33.691,64.941,43.945,-19.531
1642553906.694,42.969,32.715,36.133,37.598,-13.672
1642553906.698,28.809,32.715,29.297,26.367,-12.207
1642553906.699,41.992,28.320,47.852,31.738,23.438
1642553906.703,45.898,26.367,41.992,36.621,47.852
1642553906.707,31.738,28.320,21.973,34.180,17.578
1642553906.711,25.879,30.762,21.973,24.902,12.695
1642553906.715,24.414,33.203,25.879,18.555,9.277
1642553906.719,29.297,29.297,5.859,20.508,-2.930
1642553906.723,29.297,29.297,-6.348,23.438,-13.184
1642553906.726,25.391,35.645,13.672,15.625,-7.324
1642553906.730,27.344,32.715,26.855,8.789,17.090
1642553906.734,33.691,30.762,5.859,18.066,30.273
1642553906.738,29.785,32.715,0.977,21.973,20.996
1642553906.742,17.090,33.691,3.906,14.648,-21.973
1642553906.760,19.531,33.691,26.367,13.672,-14.648
1642553906.764,32.715,26.367,13.672,15.137,5.371
1642553906.768,37.109,29.785,1.465,23.926,-13.184
1642553906.772,31.738,33.691,35.156,27.832,-17.090
1642553906.776,27.344,25.879,39.062,18.555,15.625
1642553906.780,21.484,26.367,18.066,25.391,50.781
1642553906.784,23.438,29.785,28.320,36.133,36.621
1642553906.787,29.297,31.250,63.965,37.109,12.695
1642553906.791,24.414,29.785,42.480,34.180,28.809
1642553906.795,27.832,24.902,19.043,28.809,-13.184
1642553906.799,42.480,25.879,35.156,40.527,-24.414
1642553906.803,38.086,28.320,44.434,45.898,26.855
1642553906.806,23.438,34.668,43.945,38.086,8.301
1642553906.810,23.926,36.621,33.691,36.621,-21.973
1642553906.814,52.734,27.832,25.879,49.805,-47.852
1642553906.818,70.801,34.668,41.016,66.406,-33.203
1642553906.822,33.691,44.922,32.227,40.039,-19.531
1642553906.826,8.789,41.016,13.672,7.324,5.371
1642553906.830,29.785,35.645,23.438,9.766,2.930
1642553906.833,41.016,36.133,43.457,11.230,0.977
1642553906.837,20.996,34.180,34.668,8.301,28.809
1642553906.841,4.883,33.691,10.254,0.488,3.418
1642553906.845,15.625,39.551,41.992,-8.789,7.812
1642553906.849,25.391,40.527,68.359,-6.836,43.457
1642553906.850,15.625,29.785,36.621,-2.930,-3.418
1642553906.854,7.812,22.949,29.785,-4.395,-37.109
1642553906.858,19.043,28.320,45.410,-0.488,16.113
1642553906.862,30.762,32.715,38.574,7.324,-19.043
1642553906.866,20.996,35.645,25.391,8.789,-42.969
1642553906.870,8.301,36.133,17.090,7.324,-25.391
1642553906.874,12.207,35.645,30.762,4.395,-41.016
1642553906.877,22.461,32.227,48.340,3.418,-38.086
1642553906.881,23.438,25.879,12.695,8.789,-54.688
1642553906.885,7.812,24.902,-11.719,0.977,-76.660
1642553906.889,0.000,21.973,36.133,-2.930,-53.223
1642553906.893,11.230,16.113,40.527,7.324,-38.574
1642553906.895,23.926,13.672,31.250,18.066,-55.664
1642553906.899,21.973,20.508,31.738,16.602,-40.527
1642553906.903,12.695,29.297,25.391,12.207,-29.785
1642553906.907,26.367,31.738,33.691,22.461,-18.555
1642553906.911,43.945,29.785,45.410,37.109,-0.977
1642553906.915,36.621,23.438,41.992,36.621,-24.902
1642553906.919,20.996,21.484,32.715,23.438,-30.273
1642553906.922,25.879,23.926,28.809,17.090,-5.371
1642553906.926,29.785,21.973,-4.395,18.555,-72.754
1642553906.930,26.367,24.414,26.367,24.902,-88.867
1642553906.934,24.902,30.273,72.754,24.902,-0.977
1642553906.938,18.066,32.715,39.551,16.113,-30.273
1642553906.940,26.367,35.156,38.574,19.531,-59.082
1642553906.944,36.621,38.086,53.223,24.902,-9.277
1642553906.948,22.949,34.180,49.316,19.043,-9.277
1642553906.952,12.207,27.344,38.086,15.625,-25.879
1642553906.956,28.320,26.855,37.109,20.508,-26.367
1642553906.960,37.598,25.391,39.551,26.367,-53.711
1642553906.964,27.344,28.320,37.109,26.855,-53.223
1642553906.967,20.996,32.715,15.625,20.508,-21.484
1642553906.971,24.902,30.762,5.371,13.184,-31.738
1642553906.975,33.203,32.715,38.574,13.672,-19.531
1642553906.979,29.297,29.785,32.715,21.484,22.461
1642553906.983,15.137,29.297,10.742,20.996,-5.371
1642553906.984,18.555,35.645,23.438,21.973,-20.508
1642553906.988,36.621,32.227,32.715,31.250,-3.906
1642553906.992,27.344,28.809,22.949,30.273,-52.734
1642553906.996,15.625,26.855,21.484,26.367,-52.734
1642553907.000,13.672,18.555,22.461,20.508,-31.250
1642553907.004,15.625,19.043,16.602,23.438,-26.855
1642553907.008,27.832,25.391,12.207,40.527,-15.137
1642553907.011,37.598,31.738,-13.672,54.199,-27.344
1642553907.015,26.367,31.250,1.953,48.828,-31.250
1642553907.019,10.742,25.879,40.527,27.832,-7.812
1642553907.023,2.441,31.738,33.203,22.461,23.438
1642553907.027,-12.207,35.156,25.391,22.461,41.016
1642553907.031,-17.578,27.832,30.273,15.625,26.367
1642553907.035,2.930,20.020,20.508,15.137,2.930
1642553907.039,16.113,20.996,4.395,13.672,36.621
1642553907.043,17.090,28.809,-2.930,12.207,51.270
1642553907.047,19.531,35.156,18.066,10.254,65.918
1642553907.051,19.043,33.691,3.418,6.348,11.719
1642553907.055,31.738,32.227,-5.859,13.672,-41.992
1642553907.058,40.039,37.598,24.902,22.461,2.930
1642553907.062,26.855,41.992,38.086,20.020,27.832
1642553907.066,18.066,40.527,32.715,14.648,25.879
1642553907.070,24.414,34.668,2.441,20.508,-1.465
1642553907.074,18.555,28.320,3.418,21.484,-12.207
1642553907.075,5.371,23.926,35.645,17.090,-4.883
1642553907.079,-0.977,26.367,15.137,16.113,-23.438
1642553907.083,17.090,33.691,12.695,17.578,-7.324
1642553907.087,31.738,33.203,4.883,23.926,-20.020
1642553907.091,16.602,28.809,6.348,23.926,-20.996
1642553907.095,1.953,23.438,10.254,21.973,-12.207
1642553907.099,9.277,20.020,-18.066,22.949,5.859
1642553907.102,21.484,21.484,8.301,23.438,32.715
1642553907.106,27.344,21.484,54.688,29.785,42.969
1642553907.110,19.531,21.973,31.250,27.832,25.391
1642553907.114,20.020,26.367,19.043,27.344,9.766
1642553907.118,36.621,25.391,39.062,34.668,6.348
1642553907.135,38.574,23.438,42.969,40.527,30.762
1642553907.139,20.508,29.297,20.996,37.109,40.039
1642553907.143,19.043,30.762,12.695,30.762,44.922
1642553907.147,40.039,29.785,24.414,36.621,41.016
1642553907.151,42.480,32.227,27.832,44.434,11.230
1642553907.155,27.832,30.762,4.883,45.898,52.246
1642553907.159,29.785,31.738,-8.789,43.945,42.480
1642553907.162,53.223,34.668,31.738,40.039,12.207
1642553907.166,52.734,36.621,41.016,32.227,30.273
1642553907.170,32.227,37.598,14.648,30.762,15.137
1642553907.174,22.949,37.109,8.789,25.879,-5.371
1642553907.178,28.320,34.668,14.160,19.043,-20.996
1642553907.180,40.039,33.691,25.391,26.367,26.367
1642553907.184,39.062,36.621,20.996,26.855,63.965
1642553907.188,31.738,37.109,14.160,22.949,42.480
1642553907.192,34.180,37.598,18.066,20.996,33.203
1642553907.196,40.039,33.691,10.742,18.066,13.672
1642553907.200,39.551,25.391,6.348,24.414,40.527
1642553907.204,34.668,27.344,9.277,22.461,32.227
1642553907.207,28.809,33.691,16.602,11.719,-36.621
1642553907.211,40.039,37.109,21.973,7.324,-16.113
1642553907.215,41.992,41.992,-3.906,14.648,38.574
1642553907.219,17.578,36.133,1.953,12.695,5.859
1642553907.223,10.254,31.250,38.574,6.836,-27.344
1642553907.225,11.230,31.250,16.113,6.348,-19.531
1642553907.229,10.742,27.344,9.766,5.859,20.508
1642553907.233,12.695,28.320,22.461,13.184,14.160
1642553907.237,5.859,27.344,12.695,14.648,9.766
1642553907.241,9.766,23.438,-0.488,9.277,10.742
1642553907.245,28.320,22.949,3.906,22.949,-7.812
1642553907.249,32.227,23.438,21.484,25.879,11.719
1642553907.252,29.297,23.926,41.992,16.113,46.387
1642553907.256,26.855,27.832,13.184,19.531,53.711
1642553907.260,34.180,33.203,5.371,16.113,28.320
1642553907.264,45.898,29.785,56.641,24.414,36.133
1642553907.268,34.180,27.344,44.922,32.715,47.852
1642553907.269,26.855,28.320,23.926,22.949,34.668
1642553907.273,41.016,30.273,38.574,30.762,5.859
1642553907.277,56.152,33.203,50.781,45.410,3.906
1642553907.281,44.922,29.297,32.715,35.156,30.273
1642553907.285,26.855,27.344,16.602,17.578,71.289
1642553907.289,33.691,24.414,18.555,20.996,83.984
1642553907.293,51.758,26.855,32.715,38.086,94.727
1642553907.296,43.457,32.715,43.945,40.039,106.445
1642553907.300,19.043,31.738,7.324,24.902,51.270
1642553907.304,21.973,31.738,25.879,20.996,47.363
1642553907.308,38.086,25.879,62.988,31.250,93.262
1642553907.312,28.809,23.438,41.992,33.203,85.938
1642553907.315,10.742,25.879,32.227,26.855,93.750
1642553907.319,13.184,22.949,48.828,22.949,111.328
1642553907.323,25.879,22.461,44.922,25.391,75.195
1642553907.327,23.926,25.879,17.090,33.203,51.758
1642553907.331,12.695,30.273,31.250,30.762,63.477
1642553907.335,8.789,31.250,42.480,20.508,69.336
1642553907.339,20.020,29.297,55.176,22.949,90.820
1642553907.342,26.855,24.414,43.945,31.738,108.887
1642553907.346,17.090,24.414,28.809,32.227,67.383
1642553907.350,13.184,32.227,65.918,26.855,87.891
1642553907.354,28.320,34.668,52.246,28.809,83.984
1642553907.358,33.691,27.344,36.133,31.738,25.391
1642553907.360,17.090,22.461,38.086,24.902,-0.488
1642553907.364,8.789,23.438,42.969,27.344,35.645
1642553907.368,11.230,20.020,36.621,25.391,62.988
1642553907.372,32.227,22.461,21.973,23.438,26.367
1642553907.376,32.227,24.902,30.273,26.855,47.363
1642553907.380,9.766,29.297,28.809,17.090,85.938
1642553907.384,17.090,31.738,24.902,15.625,46.875
1642553907.387,28.320,27.832,5.371,17.090,52.246
1642553907.391,27.832,30.273,12.695,11.230,57.129
1642553907.395,29.785,27.344,54.688,15.625,40.527
1642553907.399,17.090,20.020,46.387,11.719,50.293
1642553907.403,21.484,21.484,40.039,9.277,67.383
1642553907.406,35.645,23.926,56.641,22.949,87.402
1642553907.410,28.320,24.902,55.176,27.344,39.551
1642553907.414,18.555,22.949,32.715,20.020,1.953
1642553907.418,21.973,25.879,29.297,16.113,-2.441
1642553907.422,30.273,33.203,41.992,20.020,20.508
1642553907.426,14.160,27.344,31.738,19.043,8.789
1642553907.430,-8.301,21.484,18.066,15.137,-27.344
1642553907.433,-2.441,22.461,22.949,8.301,-17.578
1642553907.437,21.973,15.137,44.434,12.695,-4.395
1642553907.441,28.320,14.648,32.715,20.996,14.160
1642553907.445,12.207,21.484,20.996,19.043,3.418
1642553907.449,13.184,21.973,30.273,17.090,31.250
1642553907.450,31.738,26.855,32.715,15.625,63.477
1642553907.454,33.203,29.785,16.113,22.949,54.199
1642553907.458,14.648,27.344,10.742,21.973,49.316
1642553907.462,4.395,26.855,20.020,5.859,56.152
1642553907.466,15.137,27.832,16.602,5.859,86.914
1642553907.470,26.855,31.738,16.113,18.066,94.238
1642553907.474,16.602,36.133,-6.836,13.184,46.875
1642553907.477,12.695,37.598,7.324,6.348,32.227
1642553907.481,21.973,33.203,34.180,11.230,47.852
1642553907.485,36.621,28.809,19.043,21.484,22.461
1642553907.489,35.645,32.715,17.090,20.996,74.219
1642553907.493,16.602,32.715,14.648,10.742,94.238
1642553907.496,13.184,30.762,29.297,10.254,81.055
1642553907.500,23.926,29.785,16.602,17.090,55.664
1642553907.504,27.832,25.879,6.836,22.461,-1.953
1642553907.508,20.508,27.344,33.691,20.508,-10.742
1642553907.512,28.809,33.203,27.344,25.879,20.508
1642553907.516,54.688,37.109,-4.883,51.270,20.020
1642553907.520,51.758,30.762,18.066,58.105,5.371
1642553907.523,8.301,19.531,60.547,24.902,23.926
1642553907.527,-6.836,23.438,39.551,13.184,35.645
1642553907.531,18.066,25.879,27.832,25.391,93.262
1642553907.535,36.133,19.043,35.156,30.273,102.539
1642553907.539,39.551,16.602,41.504,39.551,80.078
1642553907.556,38.086,18.066,23.926,38.574,38.574
1642553907.560,44.922,20.996,9.766,30.762,32.715
1642553907.564,53.711,23.438,20.508,38.086,41.016
1642553907.568,51.758,30.273,38.086,48.828,31.250
1642553907.572,42.969,34.180,35.156,45.898,64.941
1642553907.576,38.574,35.156,-6.348,37.598,72.754
1642553907.580,45.410,33.691,18.066,34.180,81.543
1642553907.583,48.340,27.832,61.523,34.180,78.125
1642553907.587,32.715,15.137,33.691,28.809,64.453
1642553907.591,30.762,18.555,27.344,21.484,28.320
1642553907.595,50.293,26.367,41.016,26.855,33.691
1642553907.599,55.664,22.949,42.480,37.109,46.387
1642553907.600,47.852,27.344,41.992,40.039,52.246
1642553907.604,41.016,30.762,32.227,36.133,47.363
1642553907.608,47.852,31.738,34.668,35.645,17.090
1642553907.612,59.570,32.715,35.645,41.504,43.457
1642553907.616,42.480,31.738,17.578,32.715,51.270
1642553907.620,30.762,29.785,7.324,22.461,17.578
1642553907.624,43.457,29.785,23.926,24.414,8.301
1642553907.627,55.664,26.855,47.363,29.785,14.648
1642553907.631,44.922,19.043,25.879,34.668,7.324
1642553907.635,27.832,21.973,-3.418,32.715,-10.254
1642553907.639,31.738,26.367,35.156,30.762,5.859
1642553907.643,39.551,27.344,40.527,29.785,19.531
1642553907.645,43.945,20.996,27.344,36.621,17.578
1642553907.649,35.156,20.020,28.320,43.945,65.430
1642553907.653,27.832,23.438,32.227,36.133,61.523
1642553907.657,33.691,23.438,28.809,29.297,16.602
1642553907.661,36.621,20.996,25.391,31.738,14.160
1642553907.665,35.645,21.973,25.391,37.598,11.719
1642553907.669,31.250,27.344,25.391,37.598,4.883
1642553907.672,37.109,23.926,31.738,31.250,35.645
1642553907.676,40.039,19.043,2.441,33.203,30.762
1642553907.680,40.039,23.926,20.996,42.480,24.414
1642553907.684,40.039,29.297,63.477,45.410,47.363
1642553907.688,37.109,28.809,39.062,44.434,27.344
1642553907.690,51.270,29.785,38.574,50.781,9.277
1642553907.694,59.570,33.203,48.340,46.875,18.555
1642553907.698,48.340,34.180,29.785,36.133,9.766
1642553907.702,39.551,26.855,9.277,28.809,14.648
1642553907.706,42.480,21.484,17.090,27.344,34.668
1642553907.710,44.922,26.367,24.902,38.086,49.805
1642553907.714,34.180,31.250,14.160,40.039,83.496
1642553907.717,24.902,31.738,-4.395,33.203,72.266
1642553907.721,29.785,30.762,-0.977,34.180,51.270
1642553907.725,42.480,29.785,34.668,40.039,44.434
1642553907.729,35.645,32.227,29.297,38.086,-28.320
1642553907.733,21.973,30.273,19.043,32.715,-63.965
1642553907.735,20.996,24.902,30.762,29.297,-48.340
1642553907.739,27.344,27.832,40.039,32.715,-5.859
1642553907.743,22.949,34.180,18.066,32.715,34.180
1642553907.747,11.230,30.762,4.395,22.461,21.484
1642553907.751,13.184,32.227,9.766,20.020,9.766
1642553907.755,28.320,37.109,2.930,32.227,-14.160
1642553907.759,33.691,32.227,15.137,43.945,3.906
1642553907.762,20.020,31.250,8.789,36.133,64.941
1642553907.766,18.066,32.227,16.113,22.949,40.527
1642553907.770,33.203,29.297,36.621,26.855,35.645
1642553907.774,40.527,29.785,23.438,37.598,61.035
1642553907.778,34.180,27.832,21.484,38.086,15.137
1642553907.781,37.598,32.715,36.133,34.668,41.016
1642553907.785,52.734,39.062,35.645,37.109,88.867
1642553907.789,58.105,36.133,13.184,41.504,32.227
1642553907.793,52.246,34.180,19.531,43.457,23.926
1642553907.797,36.133,35.645,36.133,36.133,32.715
1642553907.801,34.180,37.109,22.461,32.227,50.781
1642553907.805,42.969,35.645,6.836,34.668,62.012
1642553907.808,35.645,33.203,16.602,35.156,41.992
1642553907.812,22.461,27.344,55.176,30.273,71.289
1642553907.816,25.879,30.762,52.246,30.273,57.617
1642553907.820,38.086,35.645,45.410,32.715,46.387
1642553907.824,35.645,33.203,47.852,33.691,48.828
1642553907.825,19.531,32.715,44.922,34.668,73.242
1642553907.829,11.230,26.855,32.715,24.902,100.098
1642553907.833,21.973,23.438,31.738,23.926,80.078
1642553907.837,34.180,22.949,36.133,32.715,46.387
1642553907.841,23.926,26.855,33.691,29.297,59.082
1642553907.845,15.625,33.691,41.992,21.973,87.402
1642553907.849,20.020,33.203,20.996,18.066,49.316
1642553907.852,28.809,30.273,36.133,22.461,12.207
1642553907.856,28.320,30.762,79.590,28.320,77.637
1642553907.860,14.160,34.668,49.316,25.879,81.543
1642553907.864,16.113,33.203,35.645,22.461,57.129
1642553907.868,36.621,28.809,56.641,28.809,78.613
1642553907.886,42.480,29.785,60.059,40.039,55.176
1642553907.890,22.461,24.414,35.156,36.621,-8.789
1642553907.894,15.625,21.973,23.438,30.273,2.441
1642553907.898,30.273,25.391,41.992,26.367,56.152
1642553907.902,34.180,25.391,42.480,28.809,61.523
1642553907.906,13.672,24.902,17.090,30.273,23.438
1642553907.910,1.465,23.926,19.043,20.508,-7.324
1642553907.913,13.184,27.344,54.688,19.043,28.809
1642553907.917,12.695,28.809,47.852,20.996,39.551
1642553907.921,0.977,27.832,15.137,19.043,21.973
1642553907.925,3.418,34.180,21.484,16.602,56.152
1642553907.929,15.625,39.551,32.715,15.625,68.359
1642553907.930,22.461,36.133,28.320,21.973,72.266
1642553907.934,20.996,34.668,39.551,29.785,103.027
1642553907.938,8.789,32.227,37.598,26.367,87.402
1642553907.942,7.324,26.855,32.227,17.090,78.125
1642553907.946,16.602,30.273,32.715,12.695,83.984
1642553907.950,13.672,33.203,17.578,16.602,62.988
1642553907.954,-1.953,31.738,25.391,14.648,41.992
1642553907.957,-9.277,27.344,43.457,9.277,54.688
1642553907.961,4.883,27.344,33.691,15.625,54.199
1642553907.965,-0.488,33.691,-12.207,14.648,17.090
1642553907.969,-12.207,36.133,-0.977,11.719,-3.418
1642553907.973,-1.953,30.762,51.758,16.602,58.594
1642553907.990,10.254,25.391,29.297,23.438,66.895
1642553907.994,28.809,32.227,23.438,32.227,46.875
1642553907.998,36.133,37.598,46.387,38.574,74.219
1642553908.002,25.391,34.668,43.945,34.180,60.059
1642553908.006,23.926,28.809,14.160,20.508,11.230
1642553908.010,38.574,26.367,1.465,24.414,23.926
1642553908.014,40.527,31.738,4.883,32.715,20.508
1642553908.017,29.785,31.250,16.113,26.367,18.555
1642553908.021,23.926,22.949,4.395,20.508,18.066
1642553908.025,30.273,25.879,7.324,29.297,34.180
1642553908.029,35.156,30.762,40.527,40.039,90.332
1642553908.033,30.762,34.668,27.344,38.574,59.082
1642553908.019,29.785,41.992,22.461,28.809,60.547
1642553908.023,39.062,34.180,23.438,28.320,97.168
1642553908.027,39.551,31.250,26.367,31.250,103.027
1642553908.031,24.902,30.762,30.273,30.762,98.145
1642553908.035,14.648,19.531,21.484,21.973,60.059
1642553908.039,15.137,15.625,14.160,12.695,34.180
1642553908.043,26.855,17.578,34.668,21.484,41.504
1642553908.046,22.461,21.973,41.016,21.973,65.430
1642553908.050,7.324,28.809,25.391,11.719,64.941
1642553908.054,17.578,33.691,44.434,11.719,59.082
1642553908.058,31.738,36.133,66.406,16.113,76.172
1642553908.062,26.855,35.156,45.410,24.414,89.355
1642553908.065,13.184,31.250,8.789,22.949,62.500
1642553908.069,29.297,27.832,41.016,27.832,46.875
1642553908.073,62.500,30.273,57.129,49.316,28.320
1642553908.077,46.875,34.668,16.602,31.738,11.719
1642553908.081,8.789,36.133,10.742,5.371,-9.277
1642553908.085,8.789,31.250,33.203,9.766,-3.418
1642553908.089,34.668,25.391,49.316,18.066,45.898
1642553908.092,32.227,30.273,25.879,10.254,45.898
1642553908.096,16.113,34.668,14.160,2.930,4.395
1642553908.100,3.418,37.109,58.594,-3.418,27.344
1642553908.104,0.000,33.691,58.105,-11.230,83.984
1642553908.108,11.719,32.715,43.457,-2.930,72.754
1642553908.110,1.465,33.203,43.457,-3.418,73.730
1642553908.114,-10.742,32.227,40.527,-5.371,69.824
1642553908.118,-7.324,31.738,28.320,-4.395,61.523
1642553908.122,13.184,37.109,30.762,5.859,31.250
1642553908.126,15.625,36.133,40.039,10.742,22.461
1642553908.130,-6.836,29.785,18.555,0.000,26.367
1642553908.134,-4.395,32.715,7.324,-7.324,19.043
1642553908.137,13.672,30.273,-9.277,-5.859,10.742
1642553908.141,20.508,32.227,3.906,-1.465,17.578
1642553908.145,13.672,32.227,41.504,-2.930,8.789
1642553908.149,14.160,28.809,24.902,-4.883,22.461
1642553908.153,28.320,35.645,12.207,3.418,31.250
1642553908.155,32.715,42.480,27.832,13.184,49.316
1642553908.159,17.578,41.016,25.879,10.254,67.383
1642553908.163,-2.930,27.832,2.930,1.465,35.645
1642553908.167,-8.301,25.391,12.695,5.859,17.090
1642553908.171,3.906,28.320,34.668,15.625,47.852
1642553908.175,9.766,30.762,32.227,24.902,95.703
1642553908.179,8.301,35.645,15.137,27.832,91.797
1642553908.182,14.648,36.621,10.254,25.391,58.594
1642553908.186,28.809,28.809,33.691,26.855,34.180
1642553908.190,31.738,26.367,32.715,33.691,15.625
1642553908.194,20.508,33.691,17.578,33.691,-6.836
1642553908.198,17.090,34.180,18.555,21.484,-15.625
1642553908.200,33.691,33.203,35.645,20.508,12.207
1642553908.204,33.691,30.762,34.668,25.391,38.086
1642553908.208,17.578,27.832,31.738,24.902,33.691
1642553908.212,13.184,30.273,26.855,20.508,15.137
1642553908.216,24.902,35.645,19.531,21.973,15.625
1642553908.220,32.715,36.133,17.090,29.785,65.430
1642553908.224,21.973,32.227,-0.977,25.391,56.152
1642553908.227,10.254,32.227,20.020,19.531,9.277
1642553908.231,18.555,32.715,53.711,21.484,27.344
1642553908.235,28.320,30.762,38.574,27.832,29.297
1642553908.239,26.367,29.297,40.039,27.344,-5.371
1642553908.243,15.137,26.855,34.180,15.625,-7.324
1642553908.246,18.066,22.949,27.344,9.277,4.395
1642553908.250,30.762,22.949,6.836,11.719,-22.461
1642553908.254,27.832,22.949,-2.441,19.531,-10.742
1642553908.258,14.160,23.926,29.297,20.020,18.555
1642553908.262,11.230,32.715,29.297,16.602,-14.160
1642553908.266,33.691,41.016,-5.371,27.344,-15.137
1642553908.270,55.176,41.016,5.371,52.734,10.742
1642553908.273,50.781,34.180,59.570,53.711,50.293
1642553908.277,16.602,30.273,51.270,17.578,85.938
1642553908.281,8.789,31.250,33.203,9.766,87.891
1642553908.285,24.414,28.320,40.039,21.484,58.594
1642553908.289,17.578,23.926,42.480,19.043,46.387
1642553908.306,9.766,27.832,32.227,16.113,43.457
1642553908.310,10.742,29.785,23.438,8.301,2.930
1642553908.314,20.508,25.391,25.879,10.742,27.344
1642553908.318,23.926,27.832,46.387,21.973,88.867
1642553908.322,16.113,33.691,43.945,21.973,112.305
1642553908.326,11.719,34.668,-0.488,12.695,19.531
1642553908.330,29.297,33.691,26.367,13.184,-15.625
1642553908.333,42.480,31.738,80.078,25.879,96.680
1642553908.337,23.926,22.949,57.129,30.273,78.125
1642553908.341,12.207,16.113,40.039,24.414,20.508
1642553908.345,23.438,22.949,49.805,23.438,20.020
1642553908.349,31.738,33.691,50.293,29.297,25.879
1642553908.350,24.414,32.227,34.180,32.227,33.203
1642553908.354,16.602,32.227,22.949,24.902,4.395
1642553908.358,26.855,29.297,32.227,20.996,-21.973
1642553908.362,40.527,26.855,40.527,28.809,11.719
1642553908.366,36.621,25.879,25.879,33.203,57.129
1642553908.370,20.020,23.438,9.277,22.461,77.637
1642553908.374,22.949,23.438,14.648,17.578,52.246
1642553908.377,43.945,27.344,25.391,30.762,19.043
1642553908.381,44.434,31.250,14.648,34.180,8.789
1642553908.385,26.367,29.297,-13.672,25.879,-45.410
1642553908.389,29.297,29.785,25.391,19.531,-10.254
1642553908.393,43.945,33.691,42.969,23.926,27.832
1642553908.395,46.875,33.691,35.645,31.250,23.438
1642553908.399,32.715,31.250,37.109,26.855,20.996
1642553908.403,25.391,28.320,36.621,20.996,34.180
1642553908.407,41.992,25.879,37.598,23.926,86.914
1642553908.411,48.340,30.273,33.691,28.320,88.379
1642553908.415,28.809,35.645,37.598,25.879,126.953
1642553908.419,17.578,31.738,43.457,20.020,116.211
1642553908.422,27.832,29.297,46.875,20.020,75.684
1642553908.426,34.180,32.715,8.301,23.438,43.457
1642553908.430,29.785,37.109,19.531,25.391,38.574
1642553908.434,23.438,36.621,56.641,28.320,62.012
1642553908.438,22.461,36.621,37.598,32.227,23.438
1642553908.440,32.715,36.621,40.039,29.785,25.879
1642553908.444,33.203,28.809,41.504,27.832,53.223
1642553908.448,15.625,25.391,28.320,29.297,65.430
1642553908.452,12.695,23.926,19.043,25.879,43.945
1642553908.456,32.715,17.578,32.715,37.109,23.926
1642553908.460,42.969,26.367,26.855,44.922,43.945
1642553908.464,18.066,40.039,16.113,19.043,36.621
1642553908.467,-1.953,44.434,10.254,1.465,14.648
1642553908.471,20.508,43.945,9.766,10.254,-6.348
1642553908.475,50.781,36.621,50.293,26.367,6.348
1642553908.479,40.039,28.320,30.762,22.949,45.898
1642553908.483,14.160,28.809,-0.977,12.695,18.555
1642553908.485,20.020,33.203,29.297,10.254,-17.090
1642553908.489,41.992,32.227,53.223,19.531,35.156
1642553908.493,38.086,29.297,33.691,27.344,86.914
1642553908.497,27.344,29.785,21.484,25.879,75.684
1642553908.501,36.133,32.715,25.391,20.996,54.199
1642553908.505,46.387,29.785,20.020,25.391,36.133
1642553908.509,44.434,24.414,28.320,33.691,-9.277
1642553908.512,29.785,26.367,8.789,30.762,-34.180
1642553908.516,38.574,32.227,26.367,28.320,-4.395
1642553908.520,56.152,35.645,61.523,33.203,5.371
1642553908.524,51.270,31.738,42.480,41.016,8.789
1642553908.528,40.527,22.949,41.504,43.457,39.062
1642553908.531,30.273,23.926,48.828,30.273,34.668
1642553908.535,37.109,23.926,46.875,20.020,28.809
1642553908.539,38.574,25.879,35.645,22.461,49.316
1642553908.543,26.855,35.645,29.297,24.414,69.336
1642553908.547,22.461,35.156,39.551,20.996,60.059
1642553908.551,25.879,32.715,33.203,18.066,66.895
1642553908.555,39.551,28.809,22.949,25.391,36.133
1642553908.558,38.086,32.227,33.203,34.180,-28.320
1642553908.562,18.555,31.738,66.895,28.809,-21.973
1642553908.566,10.742,22.949,57.129,23.438,19.531
1642553908.570,20.996,27.832,39.062,26.855,49.316
1642553908.574,22.461,31.250,39.062,34.668,83.496
1642553908.575,13.184,27.344,32.227,36.133,70.312
1642553908.579,14.160,29.785,28.320,31.738,57.617
1642553908.583,27.832,32.227,27.344,30.762,62.988
1642553908.587,34.668,33.691,22.949,32.227,46.875
1642553908.591,26.367,35.156,14.160,36.621,30.762
1642553908.595,14.648,38.086,10.254,35.645,56.641
1642553908.599,22.461,37.109,-3.418,30.762,66.406
1642553908.602,32.715,31.250,12.695,32.715,62.500
1642553908.606,29.297,26.367,55.664,33.691,115.723
1642553908.610,19.531,26.855,26.855,28.809,98.633
1642553908.614,20.996,33.691,8.789,22.461,68.848
1642553908.618,33.203,35.645,25.879,20.020,82.031
1642553908.635,38.086,31.738,21.973,27.832,88.379
1642553908.639,23.438,34.180,5.859,29.785,82.520
1642553908.643,16.113,37.109,1.465,23.438,54.199
1642553908.647,33.203,37.109,20.020,24.902,108.398
1642553908.651,37.109,35.156,20.508,27.832,148.926
1642553908.655,11.230,29.785,-7.812,22.949,71.777
1642553908.659,-4.883,24.414,-5.371,9.766,32.715
1642553908.662,14.160,27.832,38.086,10.742,34.668
1642553908.666,23.438,33.691,43.945,14.648,3.418
1642553908.670,8.301,37.109,11.230,8.789,-30.762
1642553908.674,-0.977,32.227,15.137,3.906,19.531
1642553908.678,5.859,32.715,37.109,0.977,44.922
1642553908.680,18.555,33.203,32.227,2.930,18.555
1642553908.684,22.949,31.738,23.438,11.719,50.781
1642553908.688,15.625,33.203,16.113,10.254,53.223
1642553908.692,19.531,34.668,16.113,6.348,16.113
1642553908.696,40.527,29.297,15.625,14.160,-3.906
1642553908.700,40.039,21.973,13.184,19.531,15.137
1642553908.704,18.555,22.461,16.602,14.160,38.086
1642553908.707,13.184,25.391,22.461,8.301,40.527
1642553908.711,21.973,29.785,5.859,11.719,19.531
1642553908.715,20.996,30.273,-25.391,25.391,-9.277
1642553908.719,15.625,37.109,9.277,35.156,-11.230
1642553908.723,10.254,37.598,53.223,27.832,21.973
1642553908.726,13.184,27.344,24.902,23.926,19.043
1642553908.730,20.508,27.344,13.672,33.691,-14.160
1642553908.734,22.461,24.414,28.320,34.180,11.230
1642553908.738,20.020,24.414,23.438,25.879,37.598
1642553908.742,29.297,35.645,8.789,23.438,12.207
1642553908.746,48.828,37.109,1.465,28.320,-14.160
1642553908.750,46.875,36.133,17.090,34.180,4.395
1642553908.753,29.785,40.527,25.879,27.344,10.742
1642553908.757,26.367,33.691,-17.578,22.461,-12.695
1642553908.761,47.363,30.762,-27.832,28.320,-22.949
1642553908.765,48.340,26.855,32.715,30.762,25.879
1642553908.769,18.066,17.578,40.527,20.508,35.156
1642553908.770,5.371,14.160,21.973,10.742,11.719
1642553908.774,30.762,21.973,26.855,27.344,22.461
1642553908.778,45.410,27.832,35.156,41.992,16.113
1642553908.782,29.785,25.879,33.691,34.668,10.742
1642553908.786,17.578,21.484,23.438,20.508,16.113
1642553908.790,27.832,25.879,23.438,17.578,20.020
1642553908.794,43.457,28.809,40.527,21.484,32.227
1642553908.797,35.156,30.762,53.223,20.996,52.246
1642553908.801,24.414,36.133,21.973,24.414,0.000
1642553908.805,32.715,34.180,30.762,23.926,-24.414
1642553908.809,45.898,36.133,57.617,29.297,10.254
1642553908.813,43.457,29.785,40.039,37.109,24.414
1642553908.815,31.738,23.438,28.320,25.879,43.457
1642553908.819,36.133,26.855,32.715,21.484,81.055
1642553908.823,49.805,26.367,43.457,28.809,134.277
1642553908.827,50.293,28.320,21.484,33.691,78.125
1642553908.831,38.574,29.297,17.090,31.250,24.414
1642553908.835,39.551,33.691,40.039,25.391,53.711
1642553908.839,51.270,41.016,50.781,22.949,48.340
1642553908.842,53.711,39.551,30.273,23.438,44.434
1642553908.846,45.410,31.738,7.812,20.508,31.250
1642553908.850,37.598,27.344,41.992,13.672,0.977
1642553908.854,40.039,28.809,35.156,13.672,-28.320
1642553908.858,47.363,35.156,20.996,23.438,-25.391
1642553908.860,42.480,37.109,29.297,27.832,7.324
1642553908.864,27.344,38.574,27.344,22.461,2.441
1642553908.868,23.438,35.156,28.320,26.367,25.879
1642553908.872,35.156,27.344,35.156,31.738,42.480
1642553908.876,39.551,26.855,31.250,35.156,6.836
1642553908.880,25.879,25.391,24.414,26.855,24.902
1642553908.884,21.484,28.809,22.949,19.531,42.969
1642553908.887,33.203,35.645,26.855,25.879,24.414
1642553908.891,50.293,32.715,52.734,36.133,22.461
1642553908.895,41.504,34.180,55.664,39.062,16.602
1642553908.899,27.832,37.598,36.621,32.715,25.879
1642553908.903,32.715,32.715,9.277,36.133,-21.484
1642553908.906,45.410,32.227,49.805,48.340,-7.324
1642553908.910,46.387,40.039,82.031,49.805,45.898
1642553908.914,28.809,41.016,41.016,42.969,11.230
1642553908.918,22.949,27.832,27.344,37.109,9.277
1642553908.922,26.855,31.738,39.551,33.691,38.086
1642553908.926,21.484,37.109,37.598,32.715,87.891
1642553908.930,-0.488,29.785,7.812,16.113,70.312
1642553908.933,-6.348,34.180,0.000,-1.465,25.391
1642553908.937,10.254,35.645,28.320,1.465,55.664
1642553908.941,21.973,39.062,32.715,18.555,45.410
1642553908.945,22.461,52.734,20.020,17.578,26.855
1642553908.949,15.137,55.176,2.930,-0.488,57.617
1642553908.950,23.926,53.711,23.438,-0.488,32.715
1642553908.954,31.250,56.641,61.035,10.742,-1.953
1642553908.958,20.508,57.129,78.613,15.137,42.969
1642553908.962,3.906,55.664,71.289,1.465,74.707
1642553908.966,-0.488,62.012,77.637,-12.695,60.547
1642553908.970,3.418,72.754,94.727,-1.465,48.340
1642553908.974,3.418,76.660,90.820,7.812,5.859
1642553908.977,-4.883,75.684,137.207,-0.488,-38.086
1642553908.981,-13.184,69.336,208.008,-15.137,18.066
1642553908.985,-10.254,64.941,216.797,-14.648,13.184
1642553908.989,-20.020,68.848,225.098,-8.301,-5.371
1642553908.993,-27.832,74.707,202.148,-19.043,23.438
1642553908.996,-17.578,81.543,208.984,-20.996,22.949
1642553909.000,-9.766,83.008,235.840,-21.484,6.836
1642553909.004,-12.695,81.543,257.812,-23.438,24.414
1642553909.008,-18.555,80.078,315.430,-20.508,44.922
1642553909.012,-15.137,78.125,332.031,-22.461,26.367
1642553909.016,-8.789,72.266,323.242,-23.438,3.906
1642553909.020,-15.137,73.242,348.145,-20.996,0.977
1642553909.023,-34.180,79.590,369.141,-29.785,13.184
1642553909.027,-42.480,75.195,362.793,-46.387,14.160
1642553909.031,-35.156,66.406,349.121,-49.316,6.348
1642553909.035,-20.020,66.406,360.840,-36.133,1.465
1642553909.039,-20.996,66.895,398.438,-26.855,-6.348
1642553909.056,-33.691,70.312,372.070,-32.227,-12.207
1642553909.060,-26.855,78.125,342.773,-33.203,17.578
1642553909.064,-13.672,68.359,299.316,-24.414,33.691
1642553909.068,-10.742,59.570,242.188,-15.137,10.742
1642553909.072,-16.113,61.035,187.012,-14.160,18.555
1642553909.076,-18.555,57.129,102.539,-22.949,36.133
1642553909.080,-12.207,47.852,79.102,-26.367,8.789
1642553909.083,-9.277,39.551,84.961,-12.207,14.160
1642553909.087,-9.277,36.133,34.668,3.418,52.734
1642553909.091,-9.277,39.551,-12.207,0.000,43.945
1642553909.095,6.836,39.551,-28.320,4.395,54.688
1642553909.099,23.926,28.320,-51.758,19.043,73.242
1642553909.100,17.090,25.879,-92.773,22.461,77.637
1642553909.104,19.043,28.320,-120.117,23.926,77.148
1642553909.108,41.504,20.996,-128.418,26.855,52.246
1642553909.112,55.664,19.043,-122.559,35.156,37.598
1642553909.116,54.199,17.578,-129.395,45.898,38.086
1642553909.120,41.016,12.695,-147.949,41.992,20.996
1642553909.124,47.852,12.207,-133.789,43.457,46.387
1642553909.127,62.500,8.301,-124.023,51.270,56.152
1642553909.131,54.199,0.977,-155.762,53.711,-2.930
1642553909.135,38.086,1.465,-148.438,52.734,5.371
1642553909.139,39.551,1.953,-68.359,45.898,45.898
1642553909.143,45.410,-1.953,-61.035,46.387,45.410
1642553909.145,38.086,-3.418,-93.750,55.176,34.668
1642553909.149,21.484,-0.488,-95.703,55.176,28.809
1642553909.153,22.461,0.000,-85.938,52.246,48.828
1642553909.157,44.922,-2.930,-74.219,58.105,73.242
1642553909.161,62.988,-3.418,-52.246,68.359,30.273
1642553909.165,56.641,-1.953,-47.852,71.289,22.949
1642553909.169,43.457,-0.488,-68.848,63.965,-9.766
1642553909.172,53.711,0.488,-62.012,52.246,-12.207
1642553909.176,65.430,-0.488,-90.332,57.129,8.301
1642553909.180,62.988,1.953,-82.520,62.988,-34.180
1642553909.184,54.688,4.883,-20.020,55.176,-44.434
1642553909.188,53.223,5.859,-27.344,46.387,-26.855
1642553909.190,69.824,10.254,-36.621,49.316,-9.766
1642553909.194,69.336,12.695,-34.180,57.617,-23.926
1642553909.198,51.270,10.254,-54.688,55.664,-36.133
1642553909.202,43.457,6.836,-70.312,49.316,-26.855
1642553909.206,49.316,4.883,-59.570,48.828,-31.250
1642553909.210,58.594,12.695,-47.852,60.059,-29.297
1642553909.214,51.270,16.113,-22.949,62.500,-27.832
1642553909.217,42.969,7.324,-34.180,52.246,-64.941
1642553909.221,47.852,6.348,-52.246,47.363,-50.781
1642553909.225,53.223,11.719,-2.441,52.734,40.527
1642553909.229,41.016,14.160,-23.926,56.152,43.457
1642553909.233,30.762,9.277,-71.289,56.152,10.742
1642553909.235,37.109,1.953,-63.965,53.711,31.738
1642553909.239,45.898,3.418,-55.176,59.082,64.453
1642553909.243,39.062,7.812,-59.570,65.918,54.688
1642553909.247,15.625,4.883,-62.500,62.500,33.203
1642553909.251,20.020,9.766,-60.059,61.523,42.969
1642553909.255,37.598,16.602,-66.406,62.500,44.922
1642553909.259,33.203,12.207,-66.406,60.547,25.879
1642553909.262,23.926,11.230,-86.914,57.129,-13.184
1642553909.266,28.809,11.230,-75.195,50.781,-18.066
1642553909.270,44.922,11.719,-45.410,47.363,-8.789
1642553909.274,56.641,14.160,-60.547,54.688,-18.555
1642553909.278,46.387,16.113,-57.617,56.641,-27.832
1642553909.281,40.527,19.043,-40.039,48.340,-20.020
1642553909.285,55.664,24.414,-53.711,47.852,10.254
1642553909.289,66.895,28.809,-68.359,50.781,-6.348
1642553909.293,59.570,25.879,-56.641,42.969,1.465
1642553909.297,48.828,28.809,-45.410,30.762,34.668
1642553909.301,55.664,35.645,-47.852,34.668,54.688
1642553909.305,64.453,25.879,-54.688,37.109,68.359
1642553909.308,53.223,19.043,-50.781,33.203,18.066
1642553909.312,40.527,23.438,-12.695,36.133,35.645
1642553909.316,41.992,22.461,-14.160,36.133,62.500
1642553909.320,51.758,20.020,-39.062,39.551,-17.090
1642553909.324,50.781,15.625,-34.180,45.898,-8.789
1642553909.325,40.039,13.672,-27.344,42.969,73.730
1642553909.329,35.156,23.438,-29.785,35.156,91.309
1642553909.333,42.969,27.344,-11.230,37.598,99.121
1642553909.337,49.805,23.926,8.789,41.504,112.793
1642553909.341,42.480,21.973,-13.672,36.621,62.988
1642553909.345,36.621,19.043,-26.367,33.203,60.547
1642553909.349,37.109,14.160,-28.320,31.250,65.430
1642553909.352,39.551,16.602,-12.207,32.227,18.066
1642553909.356,31.738,22.949,24.902,34.180,52.246
1642553909.360,15.625,23.926,3.906,29.785,68.848
1642553909.364,18.066,24.414,-14.648,28.809,57.617
1642553909.368,30.762,22.949,0.977,34.668,73.730
1642553909.385,26.367,18.555,7.812,37.109,74.219
1642553909.389,17.090,18.555,-9.766,30.273,38.574
1642553909.393,19.043,20.020,-17.578,20.996,27.832
1642553909.397,28.320,22.949,0.000,20.508,72.754
1642553909.401,36.133,26.855,3.418,28.320,83.984
1642553909.405,24.902,26.855,-38.574,29.297,67.383
1642553909.409,22.461,26.367,-53.223,17.090,62.988
1642553909.412,40.527,33.691,-4.395,18.555,66.895
1642553909.416,54.199,38.574,17.090,34.668,58.105
1642553909.420,42.969,31.250,-11.719,37.598,38.086
1642553909.424,31.250,31.738,-13.672,31.738,24.902
1642553909.428,42.480,40.039,15.137,29.297,76.172
1642553909.431,44.922,36.621,11.719,31.250,116.699
1642553909.435,27.832,25.879,2.441,40.527,94.727
1642553909.439,13.672,25.391,5.859,37.598,50.781
1642553909.443,10.742,24.902,11.719,26.367,52.246
1642553909.447,21.484,14.648,19.531,33.691,87.891
1642553909.451,37.109,10.254,17.578,58.594,76.172
1642553909.455,35.645,25.879,25.391,63.965,26.367
1642553909.458,10.742,44.922,35.645,17.090,0.977
1642553909.462,-6.348,40.039,17.578,-10.742,5.859
1642553909.466,-13.184,34.180,-15.137,-8.789,16.113
1642553909.470,-27.344,42.969,-7.324,-12.695,20.996
1642553909.474,-37.598,48.828,16.602,-24.414,73.730
1642553909.475,-37.109,47.363,-19.531,-37.109,72.266
1642553909.479,-48.340,49.805,-49.316,-55.176,38.574
1642553909.483,-56.641,50.293,-38.086,-61.035,59.082
1642553909.487,-48.340,49.805,-35.645,-56.152,60.547
1642553909.491,-47.852,48.828,-58.105,-70.801,39.551
1642553909.495,-39.551,44.434,-67.383,-75.195,31.250
1642553909.499,-41.992,45.898,-62.500,-73.242,31.738
1642553909.502,-49.316,47.363,-47.363,-78.613,60.547
1642553909.506,-45.898,43.457,-43.457,-81.543,27.832
1642553909.510,-41.016,33.691,-35.156,-82.031,0.977
1642553909.514,-28.809,35.645,9.277,-69.824,48.828
1642553909.518,-32.715,41.992,-9.766,-56.641,60.547
1642553909.521,-41.504,39.062,-39.551,-49.316,70.801
1642553909.525,-30.273,33.203,-31.738,-37.598,84.961
1642553909.529,-13.184,31.250,-22.461,-23.926,78.613
1642553909.533,-11.719,31.250,-40.527,-15.137,15.137
1642553909.537,-19.531,26.367,-57.617,-18.066,-29.297
1642553909.541,-9.766,22.949,-44.922,-18.555,-58.105
1642553909.545,10.742,19.531,3.906,-3.906,-45.898
1642553909.548,9.766,19.531,19.043,2.441,-6.348
1642553909.552,-5.859,22.949,-31.738,-7.812,-13.672
1642553909.556,9.277,24.414,-20.020,-5.859,20.020
1642553909.560,30.762,21.973,12.207,8.301,63.477
1642553909.564,26.367,23.438,-9.766,17.578,89.844
1642553909.565,17.578,27.832,-25.879,17.578,74.219
1642553909.569,21.973,24.414,10.254,16.602,61.035
1642553909.573,43.457,18.555,33.203,20.508,43.945
1642553909.577,55.176,26.855,21.973,30.273,17.090
1642553909.581,41.016,28.320,12.695,30.273,5.371
1642553909.585,33.203,20.996,17.578,22.949,26.367
1642553909.589,46.875,20.020,29.785,23.926,30.273
1642553909.592,56.641,18.555,1.953,36.133,-8.789
1642553909.596,38.574,20.020,-33.203,35.645,-8.301
1642553909.600,29.785,27.344,-2.930,27.344,4.395
1642553909.604,55.664,31.250,7.812,34.668,1.465
1642553909.608,68.848,31.250,8.789,45.410,21.484
1642553909.611,60.547,30.762,16.602,47.852,67.871
1642553909.615,52.734,33.203,5.859,41.504,30.273
1642553909.619,55.176,32.227,7.812,38.086,3.418
1642553909.623,61.523,28.320,11.719,43.457,53.223
1642553909.627,53.223,27.832,13.184,45.898,62.500
1642553909.631,41.504,30.273,22.949,37.598,58.594
1642553909.635,41.016,34.668,40.039,31.738,44.434
1642553909.638,46.387,35.156,26.855,38.086,36.133
1642553909.642,42.480,33.691,37.109,45.410,4.395
1642553909.646,35.156,37.598,84.473,45.410,9.277
1642553909.650,20.996,36.621,68.848,28.320,33.691
1642553909.654,27.832,30.273,46.387,24.902,2.930
1642553909.656,39.551,30.273,53.711,36.621,-12.695
1642553909.660,22.461,26.367,42.480,30.273,-1.465
1642553909.664,14.160,26.367,18.555,24.414,19.531
1642553909.668,23.438,33.203,24.902,19.043,7.324
1642553909.672,32.715,31.250,42.480,16.602,1.465
1642553909.676,25.879,31.250,34.180,20.996,41.016
1642553909.680,20.508,30.762,18.555,18.555,30.273
1642553909.683,27.832,32.227,30.762,14.648,-1.953
1642553909.687,45.898,31.250,69.336,21.484,19.043
1642553909.691,42.969,26.367,59.082,26.367,41.992
1642553909.695,24.902,28.809,38.574,27.344,0.488
1642553909.699,23.926,32.715,42.480,29.297,0.977
1642553909.731,39.551,32.227,49.316,35.645,34.668
1642553909.735,41.504,30.762,32.715,39.062,32.715
1642553909.739,25.391,31.250,13.672,40.039,16.602
1642553909.743,20.996,28.809,7.812,37.598,4.395
1642553909.747,34.668,26.367,16.113,37.109,21.973
1642553909.751,45.898,20.508,12.695,47.363,59.570
1642553909.755,37.109,17.578,-12.207,46.875,30.273
1642553909.758,34.180,21.973,1.465,42.969,15.625
1642553909.762,59.570,28.809,17.578,56.641,30.273
1642553909.766,70.312,26.855,9.277,63.965,10.742
1642553909.770,30.273,11.719,27.344,41.016,8.789
1642553909.774,6.348,10.254,31.738,26.367,61.035
1642553909.746,36.621,20.020,22.949,47.363,58.594
1642553909.750,63.477,15.625,34.180,63.477,10.742
1642553909.754,59.570,5.371,43.457,55.664,12.207
1642553909.758,66.406,15.137,64.453,62.988,30.762
1642553909.762,84.473,20.996,72.754,72.266,58.105
1642553909.766,83.496,16.113,43.945,63.965,23.438
1642553909.770,82.031,18.066,40.527,60.547,-11.719
1642553909.773,84.473,17.578,52.734,69.336,29.297
1642553909.777,75.684,17.090,42.480,62.500,53.223
1642553909.781,68.359,14.160,15.625,54.199,-11.230
1642553909.785,74.219,9.766,23.438,66.406,-28.809
1642553909.789,73.730,11.230,47.363,74.707,17.090
1642553909.805,65.918,16.113,37.598,72.266,20.508
1642553909.809,62.012,15.625,3.418,61.523,-6.348
1642553909.813,62.012,10.254,-0.488,53.223,-9.277
1642553909.817,71.289,14.648,61.035,67.871,34.180
1642553909.821,70.312,19.043,73.242,76.660,25.879
1642553909.825,67.871,16.113,17.578,70.801,-7.324
1642553909.829,79.590,19.531,22.461,75.195,5.859
1642553909.832,77.637,23.926,43.945,76.172,21.484
1642553909.836,56.152,25.879,9.277,73.242,1.953
1642553909.840,41.992,24.902,9.277,72.266,8.789
1642553909.844,48.828,21.484,30.762,69.336,39.062
1642553909.848,56.641,24.902,36.133,67.871,49.316
1642553909.848,56.641,24.902,36.133,67.871,49.316
1642553909.850,49.316,30.762,24.902,72.266,40.527
1642553909.854,44.922,26.855,25.391,66.406,5.371
1642553909.858,52.734,23.438,37.598,51.758,-17.090
1642553909.862,62.988,26.367,44.434,55.176,-2.930
1642553909.866,58.105,22.461,48.828,64.941,1.465
1642553909.870,52.246,21.973,41.016,60.059,-9.766
1642553909.874,59.082,28.320,55.176,51.758,6.348
1642553909.877,62.012,24.902,76.660,49.805,46.875
1642553909.881,56.641,20.020,53.711,53.223,33.203
1642553909.885,36.133,25.879,29.785,50.781,19.531
1642553909.889,40.039,34.180,80.566,47.363,37.109
1642553909.893,58.105,31.738,101.074,50.293,24.414
1642553909.895,56.152,29.785,79.102,54.199,21.484
1642553909.899,31.738,25.391,78.125,46.875,39.551
1642553909.903,21.484,13.672,73.242,34.180,34.180
1642553909.907,39.551,18.066,63.477,35.156,54.688
1642553909.911,44.922,29.785,59.082,43.457,32.715
1642553909.915,26.855,34.180,56.641,41.992,7.324
1642553909.919,21.973,33.691,63.477,37.598,12.695
1642553909.922,38.086,27.344,80.078,37.109,3.906
1642553909.926,45.898,25.391,43.457,38.574,-40.039
1642553909.930,33.691,26.855,46.387,36.621,-57.617
1642553909.934,19.043,26.855,88.867,35.645,6.836
1642553909.938,20.508,26.855,62.012,31.250,16.113
1642553909.940,31.250,24.902,49.805,29.297,28.809
1642553909.944,33.691,24.414,57.617,36.621,56.641
1642553909.948,24.414,29.297,62.500,40.527,71.289
1642553909.952,24.902,33.691,41.992,38.574,42.969
1642553909.956,34.180,34.668,35.645,36.621,10.254
1642553909.960,32.227,28.320,42.480,37.109,29.297
1642553909.964,19.043,28.320,43.457,33.691,43.945
1642553909.967,2.441,28.809,20.996,26.367,17.578
1642553909.971,7.324,27.344,9.277,17.578,7.324
1642553909.975,24.902,37.598,53.711,25.391,51.758
1642553909.979,21.484,33.203,51.270,33.691,77.148
1642553909.983,12.207,24.902,23.926,28.809,17.578
1642553909.985,19.531,33.691,43.945,23.926,-0.488
1642553909.989,35.156,39.062,67.383,28.809,41.504
1642553909.993,31.250,36.621,55.176,36.621,79.102
1642553909.997,20.508,33.691,39.551,28.809,69.824
1642553910.001,24.414,35.156,38.574,19.531,7.324
1642553910.005,30.273,36.133,34.668,22.461,0.000
1642553910.009,33.691,32.227,39.062,30.273,21.973
1642553910.012,19.043,35.156,13.184,30.762,18.555
1642553910.016,14.160,39.062,17.578,23.438,17.578
1642553910.020,33.691,31.738,51.758,25.879,31.738
1642553910.024,39.551,30.762,30.762,33.691,22.461
1642553910.028,27.344,36.133,20.508,33.691,6.836
1642553910.076,16.113,33.203,34.668,29.785,18.555
1642553910.080,21.484,27.832,29.297,25.391,15.625
1642553910.084,29.785,29.785,5.371,27.832,15.625
1642553910.088,29.297,34.180,18.555,34.180,42.480
1642553910.092,17.090,33.203,34.180,27.832,27.832
1642553910.096,16.113,36.621,22.949,21.973,-3.418
1642553910.100,29.785,36.133,10.742,24.414,-26.367
1642553910.103,21.484,34.180,9.277,30.273,-53.711
1642553910.107,6.348,34.668,39.551,27.832,-11.230
1642553910.111,13.672,32.715,39.062,22.949,12.695
1642553910.115,32.227,35.156,29.785,30.762,-8.301
1642553910.119,37.598,36.621,37.598,36.621,-17.578
1642553910.078,30.762,33.691,39.551,32.227,-20.508
1642553910.082,33.203,30.273,29.785,31.738,4.883
1642553910.086,43.945,34.180,30.762,31.250,27.832
1642553910.090,46.875,32.227,39.551,31.250,20.020
1642553910.094,39.062,27.344,31.250,28.809,31.738
1642553910.098,37.109,27.344,16.602,27.344,52.734
1642553910.102,47.852,27.344,14.160,25.879,20.508
1642553910.105,56.152,31.250,40.039,28.809,10.742
1642553910.109,48.828,26.367,55.176,30.273,18.555
1642553910.113,30.273,22.949,42.969,19.531,19.531
1642553910.117,28.320,18.555,24.414,15.137,6.836
1642553910.121,34.180,17.578,39.062,15.625,-19.531
1642553910.150,32.227,24.902,53.223,17.090,-8.789
1642553910.154,17.578,24.902,29.297,15.137,-1.953
1642553910.158,9.277,29.785,19.043,12.207,-19.531
1642553910.162,26.367,32.715,35.645,20.996,-20.020
1642553910.166,25.391,26.855,31.738,24.414,26.855
1642553910.170,11.719,26.367,12.695,26.367,54.688
1642553910.174,15.137,33.203,-10.742,34.668,3.418
1642553910.177,29.297,37.598,17.090,35.156,-28.320
1642553910.181,20.508,30.762,64.453,19.531,24.902
1642553910.185,-4.883,24.414,29.297,3.418,16.113
1642553910.189,-6.836,27.344,25.879,6.348,-15.137
1642553910.193,14.160,23.438,73.730,10.254,-0.488
1642553910.181,33.203,27.832,59.570,11.719,-1.465
1642553910.185,36.133,32.715,54.688,17.578,-4.395
1642553910.189,28.320,24.414,52.734,6.836,-20.996
1642553910.193,39.062,26.367,41.992,-1.465,-0.977
1642553910.197,55.664,29.297,37.598,7.324,16.602
1642553910.201,53.223,26.855,28.809,13.672,18.066
1642553910.205,42.480,33.203,29.297,16.602,13.184
1642553910.208,34.668,38.086,36.621,11.719,-11.719
1642553910.212,32.715,33.691,31.738,15.625,29.785
1642553910.216,26.367,25.391,28.809,16.602,81.543
1642553910.220,17.090,24.902,36.133,11.719,108.887
1642553910.224,21.484,26.855,39.062,11.719,95.215
1642553910.225,27.832,24.414,37.598,7.324,61.035
1642553910.229,18.555,24.414,8.301,12.695,11.719
1642553910.233,11.230,29.297,29.785,17.090,10.254
1642553910.237,6.836,29.785,59.570,10.254,68.359
1642553910.241,5.371,28.809,25.879,8.301,61.035
1642553910.245,14.648,28.809,12.695,11.230,66.895
1642553910.249,8.301,27.344,33.203,13.184,71.289
1642553910.252,-1.953,21.973,47.852,6.348,86.426
1642553910.256,5.859,15.625,12.207,7.812,32.227
1642553910.260,12.695,22.949,6.836,16.113,-82.520
1642553910.264,12.695,23.438,57.617,22.461,-43.457
1642553910.268,5.371,19.043,50.293,25.391,33.203
1642553910.271,3.906,28.809,27.832,20.020,23.438
1642553910.275,14.648,30.273,35.156,19.531,26.367
1642553910.279,18.555,27.344,45.898,24.902,37.598
1642553910.283,8.789,30.273,34.668,23.438,5.371
1642553910.287,5.371,32.227,21.973,20.020,5.859
1642553910.291,12.207,30.762,29.785,21.484,35.645
1642553910.295,8.789,28.320,41.504,20.020,52.734
1642553910.298,2.930,26.367,39.551,19.531,34.180
1642553910.302,-0.488,27.344,10.254,12.207,-20.020
1642553910.306,11.230,32.227,27.832,9.277,-24.902
1642553910.310,25.879,33.203,66.895,16.113,27.344
1642553910.314,20.996,30.762,34.668,15.137,6.348
1642553910.316,17.578,39.062,26.367,10.254,2.441
1642553910.320,22.461,45.410,42.480,7.812,-5.859
1642553910.324,33.203,36.621,41.992,9.766,-26.855
1642553910.328,30.273,20.508,25.391,13.184,-31.250
1642553910.332,13.184,15.137,18.555,9.766,-19.531
1642553910.336,13.184,25.391,23.926,5.859,-24.902
1642553910.340,26.367,36.621,22.461,8.789,-8.789
1642553910.343,25.391,37.109,16.113,12.207,13.672
1642553910.347,10.254,31.738,0.488,6.348,-2.930
1642553910.351,3.906,31.250,34.180,1.465,14.648
1642553910.355,12.207,33.203,39.062,7.324,-7.324
1642553910.359,17.090,33.203,26.367,13.672,4.395
1642553910.361,13.184,39.551,38.086,16.113,44.434
1642553910.365,10.254,39.551,26.367,11.230,15.625
1642553910.369,15.625,31.738,24.414,11.230,6.836
1642553910.373,23.438,35.156,30.273,15.625,68.848
1642553910.377,24.414,40.527,32.715,21.973,57.129
1642553910.381,10.742,30.762,27.344,20.508,10.742
1642553910.385,11.719,27.832,26.367,12.695,51.270
1642553910.388,33.203,34.180,10.254,16.113,63.965
1642553910.392,36.621,32.715,18.555,20.996,-8.789
1642553910.396,29.297,32.715,64.941,20.996,11.719
1642553910.400,27.832,30.273,56.152,14.648,32.715
1642553910.404,39.062,26.367,42.969,12.695,2.441
1642553910.406,50.781,31.738,51.270,25.391,-17.090
1642553910.410,35.645,35.156,47.852,21.484,6.348
1642553910.414,25.391,32.715,22.949,9.277,13.672
1642553910.418,35.156,33.203,21.484,11.230,20.020
1642553910.422,45.410,35.645,42.969,15.625,3.906
1642553910.426,41.992,38.574,41.992,25.391,15.137
1642553910.430,25.879,32.715,20.996,17.090,17.090
1642553910.433,30.273,31.738,19.531,13.184,-42.480
1642553910.437,49.805,36.621,65.918,26.855,-12.695
1642553910.441,46.387,31.250,62.988,30.273,21.484
1642553910.445,32.715,33.691,31.738,29.297,20.508
1642553910.449,33.203,36.133,37.598,29.297,40.527
1642553910.451,44.434,35.156,53.223,25.879,57.617
1642553910.455,42.480,36.621,47.852,20.996,79.102
1642553910.459,37.109,29.297,39.551,22.949,67.871
1642553910.463,29.785,26.855,42.480,24.414,62.500
1642553910.467,26.855,29.297,41.016,20.996,51.270
1642553910.471,32.227,25.391,28.809,30.762,-20.508
1642553910.475,18.066,18.555,9.766,32.227,-60.059
1642553910.478,8.301,17.578,28.809,25.879,-51.758
1642553910.482,24.414,25.391,65.918,32.715,-42.969
1642553910.486,35.156,32.227,47.363,41.504,-34.668
1642553910.490,27.344,36.133,42.480,39.551,-1.465
1642553910.494,19.043,37.109,51.270,32.715,23.438
1642553910.496,26.855,34.180,51.270,30.273,30.273
1642553910.500,36.621,33.203,44.434,36.133,38.574
1642553910.504,39.062,34.180,38.574,41.504,10.254
1642553910.508,36.133,30.762,56.152,37.598,39.062
1642553910.512,33.203,32.227,59.570,28.320,74.707
1642553910.516,40.527,37.109,32.227,28.809,26.855
1642553910.520,43.945,35.156,9.277,32.227,-32.715
1642553910.523,33.691,32.227,49.316,30.273,25.879
1642553910.527,27.832,32.715,56.641,25.391,32.715
1642553910.531,38.574,31.250,35.645,20.996,17.090
1642553910.535,45.410,28.320,38.086,30.762,32.227
1642553910.539,29.785,28.809,40.039,33.203,15.137
1642553910.555,20.020,21.484,43.457,21.484,10.742
1642553910.559,29.297,19.043,42.480,26.367,20.996
1642553910.563,39.551,27.832,43.457,35.645,38.086
1642553910.567,31.738,29.785,42.969,37.109,44.434
1642553910.571,20.996,34.668,42.969,34.180,53.223
1642553910.575,17.090,37.598,5.371,30.273,19.043
1642553910.579,21.973,35.645,16.113,31.250,-2.930
1642553910.582,15.137,30.762,58.594,34.668,39.551
1642553910.586,-6.348,24.902,33.691,31.738,25.879
1642553910.590,1.465,27.344,11.719,29.297,-0.977
1642553910.594,18.555,29.297,26.367,31.250,17.090
1642553910.598,26.855,27.832,31.738,35.645,58.594
1642553910.600,27.832,29.297,15.137,33.691,48.828
1642553910.604,30.762,38.086,16.602,35.156,59.082
1642553910.608,49.805,40.527,30.762,36.621,93.750
1642553910.612,57.129,35.645,20.020,27.832,57.617
1642553910.616,43.945,30.762,7.324,25.391,47.852
1642553910.620,27.344,26.367,-0.977,22.461,46.875
1642553910.624,34.668,22.949,13.184,25.879,29.297
1642553910.627,50.293,27.344,35.156,34.180,22.949
1642553910.631,42.480,33.203,12.695,34.668,21.484
1642553910.635,27.344,38.574,-14.160,29.297,28.320
1642553910.639,34.180,39.062,31.738,26.367,63.965
1642553910.643,47.852,33.203,47.852,25.391,80.566
1642553910.645,44.434,31.250,23.926,24.414,33.691
1642553910.649,36.133,36.133,27.832,20.020,4.883
1642553910.653,32.715,39.551,35.156,15.137,-5.371
1642553910.657,38.574,39.551,27.832,17.578,-29.785
1642553910.661,48.828,40.527,26.367,27.832,-34.668
1642553910.665,30.762,37.109,23.438,21.484,-12.207
1642553910.669,14.160,32.227,30.273,10.254,35.156
1642553910.672,30.762,29.785,38.086,16.113,33.203
1642553910.676,31.250,24.902,1.465,20.020,15.625
1642553910.680,26.855,23.438,11.230,26.367,-34.180
1642553910.684,29.785,38.086,46.875,32.227,-33.691
1642553910.688,19.531,49.805,21.484,12.207,47.852
1642553910.690,23.926,45.410,10.254,4.883,77.148
1642553910.694,36.133,43.457,17.090,18.066,58.105
1642553910.698,24.902,39.062,14.648,22.461,73.242
1642553910.702,11.719,29.785,8.789,20.996,73.242
1642553910.706,15.625,28.809,14.160,19.043,70.312
1642553910.710,25.391,31.738,20.996,26.367,38.086
1642553910.714,18.066,28.320,22.461,29.785,-0.488
1642553910.717,8.301,21.484,2.930,22.461,14.648
1642553910.721,28.320,26.855,5.371,25.391,8.789
1642553910.725,41.992,35.156,30.762,30.273,28.320
1642553910.729,30.273,37.598,27.344,31.250,26.855
1642553910.733,20.508,38.574,-1.465,24.902,6.836
1642553910.735,27.832,36.621,-4.883,18.555,-21.484
1642553910.739,41.016,35.645,40.039,22.949,-30.762
1642553910.743,34.668,38.086,38.574,32.715,41.016
1642553910.747,18.066,39.551,13.184,27.832,49.316
1642553910.751,17.090,36.621,3.418,16.602,-34.668
1642553910.755,29.297,37.598,0.488,26.367,-44.434
1642553910.759,36.621,38.086,7.324,36.621,-5.371
1642553910.762,23.438,24.414,-5.859,28.809,-15.137
1642553910.766,15.137,22.461,6.836,19.043,28.320
1642553910.770,26.855,32.227,32.227,21.484,75.684
1642553910.774,26.367,38.574,5.371,30.762,15.625
1642553910.778,11.230,37.598,2.930,29.785,-13.184
1642553910.781,6.348,38.574,20.508,22.461,2.441
1642553910.785,18.555,39.062,17.090,20.996,4.883
1642553910.789,25.391,35.156,1.465,32.715,-22.461
1642553910.793,20.508,33.691,12.695,39.062,-61.523
1642553910.797,14.160,30.273,29.785,27.832,-29.785
1642553910.801,20.020,30.762,3.906,22.949,-10.742
1642553910.805,30.273,34.668,-10.742,27.832,-5.371
1642553910.808,28.809,37.109,-7.324,30.273,14.648
1642553910.812,22.949,37.109,33.691,27.832,22.949
1642553910.816,29.785,41.504,41.016,23.926,15.625
1642553910.820,42.969,41.504,25.391,26.855,11.719
1642553910.824,40.527,33.691,40.527,28.809,67.383
1642553910.826,24.902,26.367,44.922,29.297,68.848
1642553910.830,15.137,25.879,35.156,19.043,19.043
1642553910.834,28.809,25.879,35.156,15.625,17.090
1642553910.838,32.227,30.762,49.316,28.809,56.641
1642553910.842,14.648,37.598,32.227,27.832,47.363
1642553910.846,1.465,36.133,19.043,20.020,23.438
1642553910.850,6.348,37.598,15.137,23.438,28.809
1642553910.853,22.949,42.480,26.855,28.809,12.207
1642553910.857,22.461,41.016,56.152,30.762,12.695
1642553910.861,11.230,36.133,37.109,26.367,26.855
1642553910.865,18.555,29.785,30.273,23.926,30.273
1642553910.869,41.504,29.785,41.504,30.273,22.949
1642553910.870,46.875,36.133,39.551,36.133,33.691
1642553910.874,26.855,32.227,13.184,30.273,38.574
1642553910.878,22.461,30.273,1.465,26.367,-7.812
1642553910.882,41.016,38.574,34.180,28.809,11.719
1642553910.886,42.480,42.969,41.992,31.738,28.320
1642553910.890,20.020,41.504,18.066,29.785,-2.930
1642553910.894,11.230,42.480,21.484,23.438,1.465
1642553910.897,27.832,46.387,59.082,21.973,7.324
1642553910.901,29.297,40.527,58.105,27.344,29.785
1642553910.905,11.230,33.203,33.203,24.902,-1.465
1642553910.909,6.348,31.738,40.039,17.090,-4.395
1642553910.913,23.438,27.832,57.617,20.508,22.949
1642553910.930,24.902,26.855,36.133,20.996,-6.348
1642553910.934,8.301,30.762,20.508,19.043,-17.578
1642553910.938,8.789,33.203,20.996,16.113,27.832
1642553910.942,19.531,43.457,29.785,16.113,50.781
1642553910.946,23.438,44.922,27.832,23.438,56.152
1642553910.950,21.484,36.621,14.648,27.832,39.551
1642553910.954,15.625,35.645,25.391,28.320,10.254
1642553910.957,20.996,32.227,47.852,25.879,-4.883
1642553910.961,31.738,28.320,48.828,27.832,2.441
1642553910.965,29.785,33.203,23.438,35.645,6.348
1642553910.969,18.555,36.133,27.832,30.762,-22.461
1642553910.973,15.625,37.598,54.199,24.414,-13.184
1642553910.976,28.320,41.504,41.992,30.273,1.953
1642553910.980,28.809,38.574,21.973,32.715,0.488
1642553910.984,16.602,35.645,45.898,28.809,27.344
1642553910.988,10.254,31.738,51.270,23.926,59.570
1642553910.992,15.625,28.320,28.809,24.902,56.152
1642553910.996,21.484,31.250,25.391,34.180,39.062
1642553911.000,16.602,35.156,31.250,36.133,52.246
1642553911.003,2.441,35.645,42.480,22.949,86.426
1642553911.007,5.371,36.133,26.367,14.648,63.477
1642553911.011,22.949,30.273,14.648,20.996,18.555
1642553911.015,30.762,25.879,55.664,25.879,30.762
1642553911.019,31.250,36.621,51.270,31.738,73.242
1642553911.021,37.598,44.434,23.926,39.062,93.750
1642553911.025,33.691,35.645,27.344,26.367,71.777
1642553911.029,31.250,34.180,42.480,18.555,53.711
1642553911.033,33.203,39.062,27.832,30.762,78.613
1642553911.037,25.879,34.180,4.395,26.855,56.641
1642553911.041,33.691,34.668,6.348,23.926,28.809
1642553911.045,46.387,33.691,20.020,34.180,36.133
1642553911.048,33.203,28.320,21.484,30.762,8.789
1642553911.052,19.531,24.902,-11.230,21.973,-22.949
1642553911.056,28.320,28.809,2.441,22.949,-0.488
1642553911.060,45.410,39.062,35.645,24.902,37.598
1642553911.064,44.434,38.574,19.043,23.438,34.180
1642553911.065,37.598,39.551,19.531,23.926,43.457
1642553911.069,40.039,41.504,32.227,20.996,2.441
1642553911.073,51.758,40.527,33.203,24.414,20.508
1642553911.077,49.805,39.551,17.578,32.715,23.926
1642553911.081,41.016,39.551,16.113,32.227,-10.742
1642553911.085,39.062,37.598,26.367,24.902,-24.414
1642553911.089,42.969,31.250,28.809,25.391,-42.969
1642553911.092,46.387,30.762,24.414,32.715,-22.461
1642553911.096,26.855,33.203,10.254,25.879,-12.207
1642553911.100,18.555,36.133,41.016,17.090,-23.926
1642553911.104,35.645,42.969,56.152,22.949,9.766
1642553911.108,42.969,44.434,46.875,25.879,37.598
1642553911.110,26.367,43.457,51.758,18.066,18.066
1642553911.114,12.695,41.504,45.898,11.719,44.434
1642553911.118,18.555,38.086,39.062,16.113,35.645
1642553911.122,29.785,36.621,45.898,26.367,20.020
1642553911.126,28.320,34.668,35.156,24.414,22.461
1642553911.130,17.090,31.738,25.391,19.043,-4.395
1642553911.134,21.484,31.250,34.180,15.625,17.090
1642553911.137,30.273,32.227,18.555,16.113,-8.789
1642553911.141,35.156,39.551,38.086,30.273,-25.391
1642553911.145,26.855,40.527,79.590,27.832,35.156
1642553911.149,11.719,31.250,57.129,12.207,77.148
1642553911.153,17.090,34.668,35.156,15.625,33.203
1642553911.155,28.809,34.668,41.504,20.508,0.977
1642553911.159,20.508,31.250,54.688,19.043,38.086
1642553911.163,10.742,34.180,33.691,22.461,3.418
1642553911.167,20.020,30.273,22.461,23.438,-6.836
1642553911.171,25.879,31.250,40.527,24.414,21.973
1642553911.175,19.043,31.250,31.250,25.391,11.719
1642553911.179,12.695,37.109,12.207,23.926,13.672
1642553911.182,12.207,40.527,23.438,17.578,-17.090
1642553911.186,22.461,43.945,64.453,18.555,-14.160
1642553911.190,20.508,47.363,44.434,24.414,-0.977
1642553911.194,-0.977,40.527,-12.695,6.348,-17.090
1642553911.198,8.301,43.945,-13.184,6.836,30.762
1642553911.201,35.156,44.922,-12.695,28.809,62.012
1642553911.205,12.207,45.410,-45.410,8.789,51.758
1642553911.209,-13.184,45.410,-54.199,-15.137,17.090
1642553911.213,-7.812,39.551,-22.461,-14.160,-16.113
1642553911.217,5.371,52.246,23.438,-4.395,-27.344
1642553911.221,-7.812,48.340,26.367,-9.277,-40.039
1642553911.225,-18.066,51.758,57.129,-18.555,-34.180
1642553911.228,-10.742,74.707,121.094,-19.531,0.000
1642553911.232,-12.695,78.613,143.555,-26.855,1.465
1642553911.236,-20.020,70.801,151.367,-39.551,2.930
1642553911.240,-36.133,75.684,163.574,-40.527,1.953
1642553911.244,-31.738,82.031,201.172,-30.273,-14.160
1642553911.246,-30.762,83.008,227.051,-37.598,2.441
1642553911.250,-31.738,91.309,249.512,-50.293,-3.906
1642553911.254,-29.785,92.773,291.992,-42.480,-15.137
1642553911.258,-46.875,85.938,364.258,-41.016,2.441
1642553911.262,-54.199,83.496,404.785,-57.617,-18.555
1642553911.266,-39.551,95.703,394.043,-61.035,-39.551
1642553911.270,-37.598,104.004,389.648,-57.617,-20.508
1642553911.273,-46.387,95.215,423.828,-60.059,49.805
1642553911.277,-60.547,90.332,437.500,-69.824,27.344
1642553911.281,-69.824,90.332,397.461,-86.914,-22.949
1642553911.285,-62.500,95.215,392.090,-82.031,-15.137
1642553911.289,-76.172,101.562,395.020,-76.172,-9.766
1642553911.306,-92.773,100.586,354.004,-84.961,-47.852
1642553911.310,-74.219,97.168,354.492,-84.961,-52.246
1642553911.314,-51.270,91.309,382.812,-72.754,25.391
1642553911.318,-55.664,84.961,402.344,-72.266,24.902
1642553911.322,-66.406,82.520,427.246,-78.125,23.926
1642553911.326,-63.965,83.008,375.000,-72.754,8.301
1642553911.330,-54.199,87.891,342.285,-68.359,-41.016
1642553911.333,-45.898,84.961,362.305,-65.430,-34.180
1642553911.337,-46.875,68.359,290.039,-55.176,-41.016
1642553911.341,-43.457,61.523,229.980,-50.781,-56.152
1642553911.345,-32.715,61.523,232.422,-53.223,-33.691
1642553911.349,-23.926,50.293,192.383,-45.410,-7.324
1642553911.350,-29.785,37.109,134.766,-37.109,40.527
1642553911.354,-25.391,41.016,115.234,-27.344,13.184
1642553911.358,8.301,45.410,102.051,-3.418,-47.852
1642553911.362,34.668,35.645,67.871,17.578,-27.832
1642553911.366,25.391,22.461,14.160,24.902,-10.254
1642553911.370,20.508,20.020,-51.758,23.926,4.883
1642553911.374,44.434,12.207,-86.914,37.109,-40.039
1642553911.377,62.012,0.000,-97.168,49.805,-28.809
1642553911.381,60.547,5.371,-127.930,53.711,13.184
1642553911.385,52.734,9.277,-175.293,59.570,-17.578
1642553911.389,53.711,-1.465,-164.062,53.223,2.930
1642553911.393,57.617,-11.719,-148.926,54.199,11.230
1642553911.395,65.918,-7.324,-149.902,72.266,-2.441
1642553911.399,72.266,-4.883,-151.855,83.984,18.066
1642553911.403,72.754,-2.441,-151.855,83.984,58.105
1642553911.407,83.008,1.465,-150.879,80.078,23.438
1642553911.411,83.984,-2.930,-148.438,81.055,17.090
1642553911.415,64.453,-7.324,-135.742,79.590,21.973
1642553911.419,55.176,-6.348,-130.859,78.125,-16.602
1642553911.422,69.336,-3.418,-142.578,78.613,24.414
1642553911.426,88.867,-2.441,-199.219,83.984,11.230
1642553911.430,79.102,-7.812,-203.125,90.820,-39.062
1642553911.434,71.777,-7.812,-161.133,93.262,-5.371
1642553911.438,82.520,-8.301,-177.734,92.285,-0.977
1642553911.455,91.309,-8.301,-183.594,94.238,-2.930
1642553911.459,97.168,-0.488,-168.945,102.051,55.664
1642553911.463,87.891,1.953,-173.828,97.656,32.227
1642553911.467,78.125,-0.977,-183.105,82.520,-16.113
1642553911.471,84.473,1.953,-166.504,84.473,10.254
1642553911.475,86.426,1.465,-145.508,95.703,24.414
1642553911.479,79.102,-2.930,-139.648,91.797,0.488
1642553911.482,73.730,-1.465,-154.297,83.496,2.930
1642553911.486,85.938,-0.977,-130.859,81.055,-5.859
1642553911.490,103.516,3.906,-41.016,85.449,64.941
1642553911.494,103.516,7.812,-2.441,85.938,104.004
1642553911.498,83.984,6.348,-11.719,75.195,36.133
1642553911.485,84.473,4.395,-11.230,75.195,15.137
1642553911.489,95.703,3.418,16.113,82.520,-1.953
1642553911.493,83.496,5.859,23.438,81.543,-5.859
1642553911.497,66.406,11.230,8.789,72.754,14.648
1642553911.501,58.105,13.184,19.043,59.082,11.230
1642553911.505,58.594,11.719,15.625,60.059,-3.418
1642553911.509,49.316,12.207,-21.973,60.547,-35.156
1642553911.512,32.715,10.742,-33.691,58.105,-11.230
1642553911.516,36.133,9.766,-44.434,58.594,20.508
1642553911.520,47.363,12.695,-67.871,60.547,-1.953
1642553911.524,56.152,10.742,-75.684,69.336,-24.414
1642553911.528,46.875,8.789,-95.215,72.266,-16.602
1642553911.560,42.969,9.766,-75.195,63.477,19.531
1642553911.564,63.477,10.742,-49.805,59.570,47.852
1642553911.568,73.242,9.766,-72.266,64.453,18.555
1642553911.572,63.965,15.625,-68.848,61.035,-2.930
1642553911.576,57.129,24.902,-42.969,52.246,16.113
1642553911.580,61.523,22.461,-49.316,51.270,9.277
1642553911.584,67.871,20.996,-54.688,51.270,0.000
1642553911.587,56.152,19.043,-42.969,48.828,-20.020
1642553911.591,39.062,17.578,-4.395,45.410,-5.859
1642553911.595,41.504,20.020,2.930,40.039,58.594
1642553911.599,52.734,23.438,-8.301,43.945,31.250
1642553911.603,48.828,25.391,-0.488,51.758,15.625
1642553911.575,34.180,24.414,5.859,47.852,63.477
1642553911.579,30.762,21.484,2.930,41.504,46.875
1642553911.583,43.457,21.484,-4.883,39.062,-3.418
1642553911.587,42.969,26.855,6.836,42.480,-4.883
1642553911.591,26.855,22.949,20.996,38.574,-2.441
1642553911.595,17.090,23.438,10.742,27.344,-20.996
1642553911.599,27.832,27.832,22.461,29.785,-1.465
1642553911.602,45.898,24.902,43.457,40.039,41.016
1642553911.606,40.527,24.414,48.340,46.875,57.617
1642553911.610,26.367,21.484,31.738,34.180,22.949
1642553911.614,37.109,20.508,27.344,28.809,-15.625
1642553911.618,52.246,23.438,48.828,37.109,-2.930
1642553911.621,53.711,24.902,51.270,39.551,-8.301
1642553911.625,43.457,21.973,31.738,37.109,1.953
1642553911.629,41.016,20.996,-3.906,28.809,37.598
1642553911.633,54.199,20.996,27.832,30.273,44.434
1642553911.637,60.547,23.438,60.059,41.992,16.602
1642553911.641,44.434,24.414,17.578,41.992,16.113
1642553911.645,35.645,20.020,6.836,28.809,20.996
1642553911.648,57.129,19.531,40.527,31.738,-23.438
1642553911.652,61.523,20.020,50.781,41.504,-26.367
1642553911.656,36.621,16.602,18.066,35.156,-30.273
1642553911.660,38.574,9.766,10.742,40.039,-63.965
1642553911.664,54.688,11.719,43.457,47.363,-59.570
1642553911.666,39.551,25.879,37.109,26.367,-33.691
1642553911.670,17.578,31.250,20.996,11.719,-23.438
1642553911.674,17.090,28.320,9.277,18.066,-25.879
1642553911.678,38.086,24.414,13.672,28.809,-45.410
1642553911.682,49.316,24.902,13.184,35.645,-67.383
1642553911.686,34.180,23.926,-4.883,32.715,-61.035
1642553911.690,18.555,27.344,-1.953,28.809,10.742
1642553911.693,22.461,32.715,12.207,24.414,24.902
1642553911.697,32.715,32.715,-4.883,25.391,-27.832
1642553911.701,30.762,32.227,-30.762,34.668,-58.105
1642553911.705,20.020,34.180,-12.207,35.645,-13.672
1642553911.709,15.137,31.738,6.348,24.414,16.602
1642553911.725,26.367,22.949,-1.465,24.902,-27.832
1642553911.729,36.621,25.391,3.418,36.621,-23.926
1642553911.733,26.367,28.320,23.438,36.133,16.113
1642553911.737,17.578,20.996,26.367,22.461,36.621
1642553911.741,22.461,14.160,0.977,19.043,-19.531
1642553911.745,27.344,23.926,-1.465,32.715,-10.742
1642553911.749,22.461,35.156,27.344,30.273,54.199
1642553911.752,12.207,30.762,25.391,18.555,-3.418
1642553911.756,14.160,28.320,-5.371,18.555,-41.016
1642553911.760,27.832,32.227,-11.719,20.508,-62.988
1642553911.764,32.227,31.250,32.715,27.832,-27.832
1642553911.768,17.090,21.484,32.715,26.367,27.832
1642553911.771,15.137,19.531,8.301,20.996,16.602
1642553911.775,30.762,26.855,2.441,26.855,28.809
1642553911.779,32.715,23.438,13.672,31.738,33.203
1642553911.783,17.578,20.996,12.695,30.762,1.953
1642553911.787,8.301,26.855,-9.766,27.344,-11.719
1642553911.791,24.414,29.785,-8.789,31.250,0.977
1642553911.795,36.621,30.762,18.555,33.203,11.719
1642553911.798,29.785,28.320,26.367,33.203,3.906
1642553911.802,17.578,30.762,-0.977,32.715,-28.809
1642553911.806,21.973,33.203,17.090,31.250,1.465
1642553911.810,39.062,30.762,46.875,34.668,24.902
1642553911.814,40.039,29.785,11.719,39.551,2.930
1642553911.815,32.227,28.809,6.348,38.086,31.250
1642553911.819,30.762,26.367,16.602,31.738,59.570
1642553911.823,41.992,22.461,20.020,35.645,54.199
1642553911.827,40.039,24.414,13.184,40.039,20.508
1642553911.831,15.625,30.273,-0.977,27.344,3.418
1642553911.835,8.789,28.320,-4.883,19.043,3.906
1642553911.839,30.273,25.879,5.859,28.809,10.742
1642553911.842,38.086,30.762,-4.883,34.180,34.668
1642553911.846,25.879,32.715,-34.668,34.668,10.742
1642553911.850,26.367,27.344,7.812,31.738,7.324
1642553911.854,36.133,33.203,36.133,30.762,60.547
1642553911.858,48.340,37.598,13.184,35.156,31.738
1642553911.860,35.645,26.855,13.672,31.250,-22.949
1642553911.864,17.090,26.855,23.438,20.020,6.836
1642553911.868,25.879,27.344,14.160,15.625,13.184
1642553911.872,35.645,26.855,12.207,26.855,8.301
1642553911.876,33.203,31.738,20.020,32.227,28.320
1642553911.880,21.973,36.133,13.184,31.250,11.230
1642553911.884,29.785,35.645,24.902,27.832,12.207
1642553911.887,43.457,29.297,-1.465,24.414,-5.371
1642553911.891,40.039,28.809,4.395,32.715,-8.301
1642553911.895,33.203,31.250,50.293,32.715,55.664
1642553911.899,34.668,31.250,21.973,21.484,54.688
1642553911.903,48.340,25.391,6.348,23.926,20.020
1642553911.904,42.969,23.926,16.602,28.809,-11.230
1642553911.908,29.297,31.738,16.113,25.879,4.883
1642553911.912,22.949,34.668,-2.441,22.461,3.906
1642553911.916,32.715,34.668,6.348,20.996,-8.789
1642553911.920,44.922,30.762,22.949,26.367,49.316
1642553911.924,23.926,28.320,4.395,26.367,48.340
1642553911.928,4.395,26.855,-9.766,18.555,-9.277
1642553911.931,13.184,31.738,1.465,20.508,-29.785
1642553911.935,33.203,37.109,45.410,32.715,18.066
1642553911.939,26.855,29.297,35.645,37.109,30.762
1642553911.943,18.066,24.902,-0.488,28.320,11.230
1642553911.947,22.461,26.367,17.578,19.043,14.648
1642553911.950,41.016,26.855,39.062,29.297,37.109
1642553911.954,51.270,26.367,24.414,37.598,31.738
1642553911.958,36.621,26.855,9.277,28.320,-6.348
1642553911.962,27.832,33.203,20.996,20.508,12.695
1642553911.966,30.762,32.715,24.414,16.602,2.441
1642553911.970,24.414,26.855,20.020,12.207,1.465
1642553911.974,7.812,29.297,8.789,11.719,33.203
1642553911.977,-0.977,33.203,15.137,8.301,-29.297
1642553911.981,12.695,31.250,43.457,8.301,-25.879
1642553911.985,36.621,32.715,27.832,22.949,-4.395
1642553911.989,43.945,39.062,16.113,41.992,-12.207
1642553911.993,20.996,37.598,28.320,31.250,51.270
1642553911.995,13.672,26.367,21.973,14.160,51.270
1642553911.999,27.344,22.949,15.625,27.344,-5.371
1642553912.003,24.902,24.414,30.273,35.645,-35.645
1642553912.007,19.043,26.367,46.387,24.902,-35.645
1642553912.011,23.926,31.250,45.410,26.367,12.207
1642553912.015,26.367,25.391,12.695,25.879,7.812
1642553912.019,16.602,18.555,12.695,22.461,-18.555
1642553912.022,10.254,24.414,61.035,19.531,10.254
1642553912.026,7.324,26.367,60.059,11.230,-0.977
1642553912.030,18.066,22.949,39.062,13.184,-17.578
1642553912.034,26.367,22.461,36.133,18.066,-20.020
1642553912.038,18.066,20.020,32.715,20.508,-0.977
1642553912.055,13.672,20.508,14.648,12.207,45.410
1642553912.059,22.949,25.879,7.812,3.906,63.477
1642553912.063,36.621,32.227,23.438,12.207,57.617
1642553912.067,25.391,31.250,17.578,14.648,32.715
1642553912.071,12.207,25.391,13.184,11.719,10.742
1642553912.075,13.672,29.297,-2.930,11.719,-5.859
1642553912.079,20.996,29.297,17.578,10.254,-5.371
1642553912.082,12.207,31.250,61.523,11.719,20.020
1642553912.086,-10.742,35.156,35.156,10.254,27.832
1642553912.090,-8.789,30.273,18.066,9.766,24.902
1642553912.094,5.859,27.832,40.039,9.277,44.922
1642553912.098,14.160,27.832,60.059,18.555,82.520
1642553912.115,6.348,26.367,36.621,26.367,43.945
1642553912.119,0.977,23.438,21.973,18.066,21.484
1642553912.123,22.949,28.809,42.969,26.367,19.531
1642553912.127,38.086,33.203,47.363,37.598,16.602
1642553912.131,28.809,32.715,29.297,33.203,47.852
1642553912.135,16.602,32.227,22.461,24.902,53.223
1642553912.139,24.414,32.227,33.203,26.855,54.199
1642553912.142,39.062,32.227,49.805,39.551,77.637
1642553912.146,27.832,31.738,31.738,39.551,59.570
1642553912.150,16.113,27.832,4.395,38.086,28.809
1642553912.154,22.461,32.227,39.551,36.133,14.160
1642553912.158,36.621,39.551,51.758,39.062,-3.906
1642553912.145,38.574,39.551,40.039,48.828,21.484
1642553912.149,27.344,35.645,31.250,41.992,47.363
1642553912.153,29.785,35.156,20.508,31.250,36.133
1642553912.157,41.016,31.738,22.949,30.762,50.781
1642553912.161,46.875,29.785,26.367,40.527,43.945
1642553912.165,40.039,33.691,23.438,41.016,46.387
1642553912.169,28.320,37.109,25.879,25.391,56.152
1642553912.172,41.992,36.133,34.180,23.438,50.293
1642553912.176,55.176,31.250,26.367,33.691,32.227
1642553912.180,38.574,34.668,34.668,34.668,56.152
1642553912.184,24.902,34.180,46.875,21.973,76.660
1642553912.188,39.551,30.762,37.109,16.113,26.855
1642553912.190,42.480,34.180,1.953,13.672,-17.090
1642553912.194,34.668,32.227,20.996,13.672,23.926
1642553912.198,30.273,27.832,60.059,18.555,27.344
1642553912.202,27.832,26.855,39.551,14.160,42.969
1642553912.206,34.668,22.949,34.180,15.137,79.102
1642553912.210,33.203,23.438,45.898,26.855,79.590
1642553912.214,10.742,29.785,52.734,20.020,103.516
1642553912.217,1.953,25.391,37.598,12.695,84.473
1642553912.221,16.602,23.926,29.785,22.461,44.434
1642553912.225,20.020,23.438,69.824,34.180,73.242
1642553912.229,6.348,18.555,66.406,36.133,111.328
1642553912.233,-3.418,21.973,41.504,25.391,97.656
1642553912.236,6.836,29.785,46.875,21.973,71.289
1642553912.240,25.879,25.879,61.035,29.785,97.168
1642553912.244,19.043,16.113,45.898,30.762,77.637
1642553912.248,6.348,18.066,28.320,24.414,20.020
1642553912.252,17.090,30.762,42.969,25.879,31.738
1642553912.256,30.273,34.180,37.598,32.715,51.758
1642553912.260,30.762,30.762,28.320,31.250,68.359
1642553912.263,21.973,31.250,12.207,25.391,57.129
1642553912.267,33.691,34.180,11.719,25.879,6.836
1642553912.271,73.730,40.039,45.898,45.898,16.113
1642553912.275,71.289,33.691,43.945,53.711,46.875
1642553912.279,36.621,28.320,42.969,32.715,59.570
1642553912.281,27.832,27.344,55.176,17.090,85.449
1642553912.285,34.668,23.438,61.523,23.926,96.191
1642553912.289,45.410,18.555,41.016,42.480,70.801
1642553912.293,36.621,13.672,39.551,43.457,55.176
1642553912.297,25.391,21.484,53.711,26.367,59.570
1642553912.301,34.668,23.926,38.574,17.578,60.547
1642553912.305,42.969,22.949,31.250,22.949,76.660
1642553912.308,33.691,26.855,22.949,23.926,70.312
1642553912.312,26.367,30.273,54.688,23.926,46.875
1642553912.316,28.809,31.250,64.453,24.902,45.898
1642553912.320,37.598,21.973,47.852,29.785,53.711
1642553912.324,39.062,11.230,52.246,37.598,26.367
1642553912.325,27.832,15.625,58.105,35.645,29.785
1642553912.329,24.902,20.508,53.711,33.203,79.102
1642553912.333,43.457,25.879,34.180,40.039,73.242
1642553912.337,49.805,29.785,33.691,45.410,48.340
1642553912.341,30.273,28.320,39.062,38.086,83.496
1642553912.345,26.367,28.320,25.391,30.762,76.172
1642553912.349,40.527,29.297,6.348,35.645,40.527
1642553912.352,50.781,28.320,11.719,41.016,35.156
1642553912.356,48.340,37.109,63.477,37.598,69.336
1642553912.360,37.598,35.645,52.246,28.320,66.895
1642553912.364,44.922,25.879,35.645,28.809,54.688
1642553912.368,53.223,28.320,54.688,32.227,87.891
1642553912.372,43.945,32.715,65.918,37.598,101.562
1642553912.376,20.020,30.273,48.828,33.691,113.770
1642553912.380,15.625,25.391,40.527,24.902,120.117
1642553912.384,32.227,23.438,59.082,27.832,75.684
1642553912.388,24.414,25.391,49.316,25.879,55.176
1642553912.392,6.836,23.926,12.207,24.414,66.895
1642553912.396,3.906,22.949,14.648,22.949,55.664
1642553912.399,18.066,22.949,36.621,20.020,60.547
1642553912.403,28.809,21.484,22.461,30.273,53.223
1642553912.407,19.531,24.414,15.625,29.297,30.273
1642553912.411,14.160,26.367,16.113,20.020,44.434
1642553912.415,29.785,29.297,21.973,22.461,55.664
1642553912.430,41.992,29.297,24.414,26.367,75.684
1642553912.434,35.645,30.273,18.555,30.762,83.496
1642553912.438,30.762,33.691,24.902,31.738,102.051
1642553912.442,40.039,29.297,30.762,33.203,99.609
1642553912.446,50.293,20.996,27.344,36.133,65.430
1642553912.450,37.109,16.113,6.836,26.367,53.223
1642553912.454,19.531,21.484,-2.930,20.508,43.945
1642553912.457,28.809,28.320,43.945,21.973,58.594
1642553912.461,39.062,31.250,43.457,23.438,76.172
1642553912.465,35.156,28.809,20.508,25.391,44.922
1642553912.469,23.926,24.902,28.809,21.484,21.973
1642553912.473,11.719,29.297,32.227,10.742,74.707
1642553912.475,22.949,25.879,27.832,16.602,83.008
1642553912.479,36.621,21.973,23.438,31.738,79.590
1642553912.483,27.344,22.461,35.645,29.785,109.375
1642553912.487,17.578,21.484,26.855,20.508,79.590
1642553912.491,22.461,26.855,4.395,18.555,31.738
1642553912.495,27.832,26.367,-2.930,25.391,15.137
1642553912.499,22.461,28.809,23.438,32.227,49.805
1642553912.502,20.996,32.227,35.156,23.438,77.148
1642553912.506,28.320,33.203,-6.348,19.043,55.176
1642553912.510,32.715,33.203,-14.648,24.414,16.602
1642553912.514,29.785,27.832,25.879,26.367,10.742
1642553912.518,25.879,25.879,22.949,28.809,48.340
1642553912.521,27.832,25.879,20.508,20.508,67.871
1642553912.525,38.086,28.320,10.254,18.066,38.086
1642553912.529,49.316,32.715,8.789,28.809,16.602
1642553912.533,43.945,31.738,22.949,31.250,40.527
1642553912.537,31.738,30.762,11.230,25.879,61.523
1642553912.541,46.387,32.715,19.043,24.902,42.480
1642553912.545,62.012,38.086,34.180,31.250,27.832
1642553912.548,53.711,37.598,48.340,29.297,43.945
1642553912.552,39.551,31.250,25.879,19.043,31.738
1642553912.556,43.457,31.738,29.785,18.555,11.719
1642553912.560,54.688,29.785,59.570,28.809,77.637
1642553912.564,38.574,28.320,25.391,31.738,61.035
1642553912.565,13.184,30.273,19.531,26.367,13.184
1642553912.569,18.066,32.715,30.273,21.973,8.789
1642553912.573,26.367,31.250,27.344,22.461,49.316
1642553912.577,20.508,24.902,15.137,26.855,76.660
1642553912.581,3.906,25.391,6.348,26.855,30.762
1642553912.585,-7.324,27.832,11.230,18.066,20.508
1642553912.589,9.277,23.438,25.879,12.695,10.742
1642553912.592,20.996,18.555,28.320,21.484,-25.879
1642553912.596,8.301,22.461,4.883,20.508,-23.438
1642553912.600,4.883,27.344,40.527,8.789,1.465
1642553912.604,18.066,30.273,63.965,13.184,42.480
1642553912.608,33.691,29.785,44.922,24.902,101.562
1642553912.610,25.879,29.785,36.621,24.414,104.004
1642553912.614,9.766,33.203,31.738,14.648,76.660
1642553912.618,13.672,30.762,30.273,14.648,75.684
1642553912.622,18.555,31.738,36.133,21.973,26.367
1642553912.626,7.812,27.832,45.898,20.996,13.672
1642553912.630,-7.812,25.391,37.109,13.184,53.711
1642553912.634,-3.906,26.855,35.156,17.090,21.484
1642553912.637,10.742,23.438,12.207,24.414,-4.883
1642553912.641,19.043,28.320,19.043,29.785,-8.789
1642553912.645,17.090,34.180,60.059,29.297,11.230
1642553912.649,16.602,33.691,34.668,22.461,27.344
1642553912.653,31.250,37.109,23.438,22.949,13.184
1642553912.671,37.109,42.480,32.227,31.250,7.812
1642553912.675,34.668,41.504,40.527,36.621,26.367
1642553912.679,28.320,36.621,24.902,29.297,35.645
1642553912.683,36.621,24.414,13.184,29.785,23.926
1642553912.687,47.852,20.996,26.855,38.086,75.195
1642553912.691,34.180,32.227,13.184,36.133,99.609
1642553912.695,21.484,40.039,-1.953,29.785,72.754
1642553912.698,28.809,36.133,-1.465,27.344,31.250
1642553912.702,40.039,35.645,30.273,29.297,35.156
1642553912.706,36.621,33.691,30.762,35.156,92.773
1642553912.710,23.438,25.391,0.000,33.691,70.801
1642553912.714,26.855,24.902,8.301,27.832,51.270
1642553912.715,34.668,30.273,26.855,24.414,65.918
1642553912.719,27.344,32.227,20.508,26.855,38.574
1642553912.723,18.066,30.273,9.277,25.391,12.207
1642553912.727,17.578,28.320,14.648,18.555,-3.418
1642553912.731,28.809,26.855,16.113,18.555,2.441
1642553912.735,33.203,32.227,-1.465,27.344,-0.977
1642553912.739,21.484,37.109,0.488,28.809,0.488
1642553912.742,15.137,29.785,18.555,17.578,-6.836
1642553912.746,24.902,24.414,32.715,16.113,13.672
1642553912.750,36.133,25.391,30.762,23.926,30.273
1642553912.754,24.902,23.438,2.930,27.344,19.043
1642553912.758,12.695,28.320,21.484,20.508,32.227
1642553912.746,17.578,34.180,42.480,15.137,39.551
1642553912.750,26.855,31.250,13.184,25.391,40.039
1642553912.754,26.367,32.715,15.137,28.809,53.711
1642553912.758,12.695,38.086,30.762,19.043,29.785
1642553912.762,9.766,37.598,32.715,14.648,31.250
1642553912.766,20.508,32.227,18.066,18.555,23.438
1642553912.770,29.297,32.227,31.738,22.949,3.418
1642553912.773,19.043,32.715,57.129,20.508,33.203
1642553912.777,8.301,32.227,41.504,11.719,63.965
1642553912.781,19.043,25.879,8.301,8.301,37.109
1642553912.785,27.832,22.461,-1.465,9.766,20.996
1642553912.789,26.367,24.414,24.414,14.648,51.758
1642553912.805,18.555,24.902,10.742,12.207,27.832
1642553912.809,34.180,22.461,0.488,14.160,45.410
1642553912.813,50.293,26.855,20.020,26.367,91.797
1642553912.817,41.504,38.574,16.602,31.738,73.242
1642553912.821,23.926,36.621,19.043,18.555,70.312
1642553912.825,22.949,28.809,2.930,9.277,43.945
1642553912.829,35.645,26.367,-1.465,11.719,-15.625
1642553912.832,32.227,25.879,50.293,18.555,-3.906
1642553912.836,17.090,23.926,42.480,20.508,18.555
1642553912.840,4.395,20.020,20.020,12.695,-0.488
1642553912.844,9.766,22.461,28.809,15.625,-8.301
1642553912.848,13.672,32.715,39.062,24.414,22.949
1642553912.850,0.977,36.133,26.855,20.508,10.254
1642553912.854,-1.465,30.762,21.973,16.602,-25.879
1642553912.858,14.648,26.367,37.109,24.902,8.301
1642553912.862,30.762,26.367,43.945,39.062,57.129
1642553912.866,29.297,25.391,31.738,48.340,85.938
1642553912.870,46.387,28.320,5.371,60.059,59.082
1642553912.874,59.570,27.344,19.043,57.129,-0.488
1642553912.877,35.156,13.672,43.457,34.668,-20.508
1642553912.881,13.184,9.277,37.109,27.344,28.809
1642553912.885,8.789,13.184,13.672,35.645,-11.719
1642553912.889,19.531,15.625,49.805,38.574,-40.039
1642553912.893,34.180,15.625,76.660,41.016,17.578
1642553912.910,30.273,12.695,64.453,43.945,8.301
1642553912.914,22.461,12.695,69.336,41.504,13.184
1642553912.918,26.855,11.719,66.406,38.574,73.730
1642553912.922,41.016,14.160,49.805,42.969,125.000
1642553912.926,51.758,19.531,49.316,53.223,149.902
1642553912.930,41.504,15.137,41.992,53.711,84.473
1642553912.934,36.621,11.719,32.227,42.969,33.691
1642553912.937,50.293,14.160,45.898,41.504,0.977
1642553912.941,57.129,19.043,35.645,42.969,-9.277
1642553912.945,47.363,26.855,34.668,32.227,38.086
1642553912.949,40.039,28.320,62.012,29.297,45.898
1642553912.953,46.875,23.926,56.641,35.156,55.176
1642553912.941,49.805,27.344,43.945,34.180,61.035
1642553912.945,42.480,26.367,55.664,28.809,52.246
1642553912.949,29.785,24.902,57.129,28.320,53.711
1642553912.953,30.273,26.367,42.480,27.832,38.574
1642553912.957,45.898,22.461,40.527,28.809,40.527
1642553912.961,45.410,20.996,43.457,35.156,42.480
1642553912.965,30.273,24.414,43.457,34.668,45.410
1642553912.968,23.438,29.785,30.762,28.320,39.551
1642553912.972,32.715,34.668,34.180,28.809,49.805
1642553912.976,34.668,28.320,48.340,33.691,86.426
1642553912.980,15.137,19.531,43.457,37.598,68.848
1642553912.984,0.488,22.949,14.648,29.297,46.387
1642553912.986,2.441,25.391,8.301,17.578,20.508
1642553912.990,16.113,31.250,55.176,27.832,31.250
1642553912.994,24.414,38.574,62.988,33.691,70.312
1642553912.998,20.508,32.715,25.879,25.879,42.480
1642553913.002,28.320,27.344,23.438,24.414,31.250
1642553913.006,40.527,23.926,42.969,29.785,28.320
1642553913.010,42.969,24.414,48.340,33.691,65.918
1642553913.013,34.668,32.227,24.902,32.227,66.895
1642553913.017,34.668,36.621,29.785,27.344,31.250
1642553913.021,56.641,37.109,73.730,29.297,76.172
1642553913.025,57.129,33.691,53.223,35.156,50.293
1642553913.029,42.969,35.645,49.316,38.574,17.578
1642553913.030,39.551,37.598,61.035,34.180,20.020
1642553913.034,45.898,32.227,56.152,31.250,29.785
1642553913.038,46.387,21.973,43.457,32.715,13.672
1642553913.042,39.062,15.137,34.180,37.598,-3.418
1642553913.046,33.203,19.043,38.574,36.133,53.711
1642553913.050,27.832,24.414,24.902,31.738,39.551
1642553913.054,47.363,33.203,14.160,49.805,24.414
1642553913.057,52.246,39.551,1.953,67.383,30.273
1642553913.061,23.926,28.320,41.992,45.410,4.395
1642553913.065,8.789,16.602,63.965,20.508,38.086
1642553913.069,21.484,17.090,30.762,24.902,51.758
1642553913.073,25.391,20.020,36.133,36.621,41.992
1642553913.075,15.625,20.020,57.129,38.086,62.988
1642553913.079,12.207,19.531,60.059,25.879,51.758
1642553913.083,25.391,17.090,64.941,29.297,66.406
1642553913.087,30.273,12.207,66.406,35.645,30.273
1642553913.091,13.672,7.324,69.336,28.320,31.738
1642553913.095,-1.465,5.859,51.270,19.531,68.359
1642553913.099,2.930,9.277,32.227,20.996,27.832
1642553913.102,18.066,17.578,46.875,26.855,46.387
1642553913.106,17.578,25.391,59.082,28.320,44.434
1642553913.110,11.230,28.809,52.734,28.809,50.781
1642553913.114,19.043,29.297,23.926,28.320,12.207
1642553913.118,34.180,26.367,41.504,35.156,-3.906
1642553913.119,31.738,23.926,66.895,37.598,21.484
1642553913.123,24.414,25.391,42.969,28.320,10.742
1642553913.127,26.367,20.508,38.574,20.996,40.527
1642553913.131,38.574,13.184,44.922,24.414,36.133
1642553913.135,45.410,17.578,41.504,31.250,13.184
1642553913.139,32.715,23.926,14.160,31.250,8.789
1642553913.143,34.668,25.391,14.648,25.391,33.691
1642553913.146,54.199,26.855,46.387,26.855,50.781
1642553913.150,56.641,26.367,34.180,34.668,23.438
1642553913.154,38.574,26.855,9.277,36.133,2.441
1642553913.158,32.715,24.902,15.137,27.832,19.531
1642553913.162,42.969,22.949,42.480,26.855,55.664
1642553913.180,43.945,20.020,30.273,35.156,58.594
1642553913.184,35.156,13.672,20.020,36.133,30.273
1642553913.188,21.484,14.160,31.738,28.320,34.668
1642553913.192,21.973,21.484,32.227,20.996,102.539
1642553913.196,31.250,23.438,21.484,26.367,143.555
1642553913.200,19.531,25.879,11.719,27.832,107.910
1642553913.204,10.254,29.297,12.207,21.973,66.895
1642553913.207,19.531,28.320,17.090,17.090,35.645
1642553913.211,38.086,23.926,9.766,22.949,79.590
1642553913.215,38.086,23.926,-16.602,31.738,69.824
1642553913.219,23.926,24.414,-5.859,24.414,43.945
1642553913.223,25.391,21.484,22.461,20.020,56.641
1642553913.226,41.016,26.367,24.414,29.785,34.180
1642553913.230,53.711,32.715,24.902,37.598,25.391
1642553913.234,47.363,33.691,32.715,31.738,38.574
1642553913.238,38.574,38.574,20.996,22.949,55.664
1642553913.242,49.805,40.039,8.301,22.949,53.223
1642553913.246,54.199,39.062,12.695,29.785,-14.160
1642553913.250,41.504,35.156,32.227,30.762,-43.945
1642553913.253,31.250,31.250,49.316,23.438,21.973
1642553913.257,33.203,33.203,8.789,18.555,8.789
1642553913.261,45.410,32.715,-8.789,24.902,-59.570
1642553913.265,47.852,35.645,38.574,32.715,-7.812
1642553913.269,35.645,36.621,37.598,28.809,14.648
1642553913.271,35.156,30.762,20.020,27.344,-1.953
1642553913.275,38.574,27.344,7.812,26.367,9.766
1642553913.279,41.016,28.809,13.184,31.738,-7.324
1642553913.283,34.180,32.715,35.156,35.645,-7.812
1642553913.287,23.926,34.668,22.461,25.879,-28.320
1642553913.291,29.785,36.621,19.043,19.043,-18.066
1642553913.295,30.762,34.180,28.809,17.090,49.316
1642553913.298,14.160,27.832,35.156,19.531,83.008
1642553913.302,-1.465,23.438,-6.348,15.625,33.691
1642553913.306,4.883,20.996,0.977,10.254,0.000
1642553913.310,16.113,24.414,58.105,16.113,18.555
1642553913.314,13.672,24.414,32.715,23.438,36.133
1642553913.331,3.418,27.832,17.090,19.531,16.602
1642553913.335,10.742,30.762,25.879,16.113,9.277
1642553913.339,33.203,28.809,24.902,22.949,31.738
1642553913.343,29.785,24.902,20.996,27.832,25.391
1642553913.347,20.020,26.367,10.254,21.973,15.137
1642553913.351,25.879,31.250,7.324,21.484,52.734
1642553913.355,39.551,25.391,21.484,24.902,41.504
1642553913.358,43.457,25.879,21.973,28.809,52.246
1642553913.362,29.297,34.180,-6.836,30.273,59.082
1642553913.366,29.785,35.156,29.297,26.855,83.496
1642553913.370,48.828,31.738,54.199,32.227,99.609
1642553913.374,48.828,29.297,29.785,38.574,44.434
1642553913.376,30.273,34.668,26.367,35.645,30.762
1642553913.380,24.414,35.645,41.016,32.715,21.484
1642553913.384,26.855,37.109,45.410,31.250,23.926
1642553913.388,35.156,39.551,41.504,36.621,32.227
1642553913.392,31.738,26.855,43.457,38.574,55.664
1642553913.396,11.719,21.973,32.227,28.320,46.387
1642553913.400,12.695,30.273,26.855,27.344,29.297
1642553913.403,26.367,26.855,26.367,26.367,25.391
1642553913.407,26.855,24.414,44.434,23.926,55.176
1642553913.411,15.625,26.367,41.992,23.926,31.250
1642553913.415,11.230,27.344,26.855,18.555,15.625
1642553913.419,21.484,25.879,-7.812,17.090,25.879
1642553913.405,30.762,25.391,2.930,18.555,-20.020
1642553913.409,27.832,27.832,57.129,23.438,23.438
1642553913.413,24.902,29.785,41.016,15.625,67.871
1642553913.417,38.086,34.668,32.715,11.719,63.477
1642553913.421,45.410,33.691,38.574,19.531,36.133
1642553913.425,37.598,31.738,27.344,18.066,66.895
1642553913.429,28.809,31.738,15.137,8.789,65.918
1642553913.432,37.598,33.203,30.273,5.859,31.250
1642553913.436,47.852,34.180,45.410,15.137,23.438
1642553913.440,38.086,28.809,30.273,21.973,26.855
1642553913.444,19.043,30.273,-2.930,21.973,32.227
1642553913.448,18.066,35.156,-24.414,20.508,-7.324
1642553913.451,34.668,33.203,24.902,20.508,22.949
1642553913.455,38.574,31.738,41.992,27.832,68.359
1642553913.459,26.367,34.180,20.996,25.391,51.758
1642553913.463,15.137,34.668,24.414,18.066,80.566
1642553913.467,26.367,29.297,26.367,26.855,99.121
1642553913.471,33.203,27.832,6.348,29.297,44.434
1642553913.475,17.090,29.297,-20.020,24.902,20.996
1642553913.478,10.742,32.227,-8.789,18.555,35.645
1642553913.482,19.043,28.809,21.484,18.066,49.805
1642553913.486,20.996,19.531,15.137,28.809,70.801
1642553913.490,3.418,25.879,-5.371,24.414,58.105
1642553913.494,-8.789,28.809,-4.883,14.160,46.387
1642553913.496,5.859,30.762,14.648,12.695,36.133
1642553913.500,15.137,36.621,5.859,20.508,-2.930
1642553913.504,14.160,32.715,2.930,29.297,1.953
1642553913.508,9.766,30.762,22.949,20.020,21.484
1642553913.512,10.742,32.227,20.996,8.789,52.734
1642553913.516,28.809,25.879,-7.324,12.207,26.367
1642553913.520,28.320,20.996,-14.648,12.207,-22.949
1642553913.523,23.438,23.926,30.762,8.789,2.930
1642553913.527,24.414,31.250,48.340,5.371,-18.066
1642553913.531,26.367,36.621,27.344,6.836,5.371
1642553913.535,40.527,37.598,36.133,15.625,45.410
1642553913.539,32.715,35.645,43.945,19.043,37.598
1642553913.555,19.043,35.156,34.668,16.602,25.391
1642553913.559,34.180,38.574,33.203,18.066,4.395
1642553913.563,49.805,35.645,47.852,28.809,36.133
1642553913.567,37.598,27.344,27.832,32.715,41.504
1642553913.571,33.203,29.785,14.648,27.344,6.836
1642553913.575,40.039,28.320,-3.906,25.391,-25.879
1642553913.579,49.805,29.297,-0.977,28.320,-59.082
1642553913.582,57.617,38.086,53.711,34.668,-16.602
1642553913.586,44.434,30.762,37.109,33.203,-2.441
1642553913.590,38.086,28.320,21.973,24.414,-12.207
1642553913.594,47.363,40.527,26.855,29.297,4.883
1642553913.598,44.922,45.410,26.855,37.598,25.879
1642553913.600,20.996,40.527,19.043,35.645,50.781
1642553913.604,10.254,34.668,5.371,24.414,38.086
1642553913.608,21.973,34.180,13.184,21.973,27.344
1642553913.612,33.203,36.133,14.160,33.203,30.273
1642553913.616,25.391,34.668,-2.441,33.691,35.156
1642553913.620,15.137,34.668,-11.230,21.973,13.672
1642553913.624,27.832,36.621,2.930,18.066,-12.207
1642553913.627,44.922,40.039,30.762,24.414,7.812
1642553913.631,37.598,38.086,23.926,22.461,24.902
1642553913.635,17.578,31.738,-17.090,10.742,0.977
1642553913.639,24.414,35.156,18.066,1.953,-0.977
1642553913.643,36.133,33.691,43.457,7.812,52.246
1642553913.645,35.156,29.785,15.137,19.043,61.523
1642553913.649,27.832,35.156,16.602,17.090,41.016
1642553913.653,26.855,36.133,30.762,13.672,77.637
1642553913.657,36.133,35.156,43.457,14.648,104.004
1642553913.661,35.156,34.668,60.059,20.508,101.074
1642553913.665,25.879,30.273,63.477,22.949,54.199
1642553913.669,17.090,32.227,70.312,14.648,50.781
1642553913.672,19.043,33.203,79.590,14.160,60.059
1642553913.676,18.555,28.320,32.227,18.555,30.273
1642553913.680,10.254,31.738,14.648,17.578,11.230
1642553913.684,11.719,29.297,55.176,15.137,34.668
1642553913.688,10.742,17.578,40.039,13.184,35.156
1642553913.691,20.996,22.949,26.367,23.438,-6.836
1642553913.695,32.227,28.320,54.199,34.668,1.953
1642553913.699,10.742,24.902,62.988,26.367,13.184
1642553913.703,5.371,27.344,46.875,17.578,-2.441
1642553913.707,20.996,26.855,47.363,21.484,-4.883
1642553913.711,19.531,26.855,49.316,27.344,0.977
1642553913.715,14.648,33.203,50.293,25.391,24.414
1642553913.718,14.160,30.762,36.621,12.207,30.762
1642553913.722,20.020,29.785,15.625,7.324,-5.371
1642553913.726,25.879,31.250,46.875,10.254,20.508
1642553913.730,20.020,28.320,50.781,17.090,71.289
1642553913.734,11.719,25.391,20.996,12.695,35.156
1642553913.736,20.996,24.902,24.902,14.160,14.648
1642553913.740,33.691,29.297,41.016,21.973,47.363
1642553913.744,25.879,30.273,33.691,20.996,13.672
1642553913.748,6.836,33.203,10.254,13.184,-29.785
1642553913.752,14.648,35.156,9.766,5.371,8.301
1642553913.756,31.250,33.203,11.719,13.184,27.344
1642553913.760,28.809,34.668,13.184,28.809,39.551
1642553913.763,12.207,32.227,8.301,22.949,49.316
1642553913.767,18.555,30.273,5.859,19.531,17.578
1642553913.771,42.969,29.785,26.367,28.809,23.438
1642553913.775,36.133,28.320,21.484,25.879,41.504
1642553913.779,12.695,26.855,14.160,20.508,3.418
1642553913.781,11.719,19.531,36.133,15.625,4.883
1642553913.785,28.320,21.973,35.645,18.066,34.668
1642553913.789,32.227,23.438,26.855,28.320,56.641
1642553913.793,21.973,22.949,27.832,30.273,77.148
1642553913.797,13.672,27.344,28.320,23.926,67.871
1642553913.801,22.949,29.785,15.137,31.738,50.781
1642553913.805,39.551,25.391,9.766,44.922,54.688
1642553913.808,34.180,19.043,5.371,42.969,35.645
1642553913.812,31.738,22.949,38.086,38.574,20.508
1642553913.816,38.574,29.785,65.430,40.039,99.609
1642553913.820,39.551,28.809,41.504,47.852,108.398
1642553913.824,32.227,25.391,60.059,53.711,85.938
1642553913.826,21.973,28.320,72.266,42.969,54.199
1642553913.830,25.391,31.250,40.527,36.621,10.742
1642553913.834,39.062,30.762,35.645,40.039,13.672
1642553913.838,41.992,26.367,50.293,39.551,38.574
1642553913.842,32.227,25.879,37.598,33.203,60.547
1642553913.846,27.832,27.344,14.648,26.367,58.105
1642553913.850,33.203,26.855,-6.348,20.996,69.824
1642553913.853,43.457,30.273,8.789,25.391,33.691
1642553913.857,46.387,31.250,65.918,36.133,61.523
1642553913.861,27.344,25.391,49.805,27.832,98.633
1642553913.865,11.719,23.438,24.414,21.973,71.289
1642553913.869,14.648,26.855,41.992,29.297,76.660
1642553913.885,7.812,32.227,51.270,31.250,80.078
1642553913.889,-5.371,22.949,42.480,25.879,60.059
1642553913.893,2.441,15.625,35.645,25.391,28.809
1642553913.897,15.625,27.344,55.176,28.320,33.691
1642553913.901,11.230,33.203,58.594,31.738,26.367
1642553913.905,-2.441,38.574,27.832,24.414,59.082
1642553913.909,0.488,38.574,7.324,13.672,80.078
1642553913.912,20.508,34.180,37.598,12.695,51.758
1642553913.916,27.832,29.297,23.926,11.719,48.828
1642553913.920,12.207,28.320,-8.789,9.277,42.480
1642553913.924,7.812,31.738,1.953,5.371,43.457
1642553913.928,29.297,33.691,19.531,11.719,38.086
1642553913.930,46.875,31.738,25.879,26.855,21.973
1642553913.934,40.039,26.855,20.508,34.180,2.930
1642553913.938,25.879,26.367,24.414,27.344,10.742
1642553913.942,27.344,27.344,35.645,23.438,33.691
1642553913.946,38.574,25.391,40.039,30.273,62.500
1642553913.950,30.273,31.250,39.062,36.621,64.453
1642553913.954,5.859,31.250,43.457,29.297,44.922
1642553913.957,3.906,29.297,70.312,23.438,58.594
1642553913.961,22.949,35.156,65.430,26.855,25.879
1642553913.965,17.578,34.180,11.719,25.879,-32.227
1642553913.969,8.301,35.156,14.648,21.484,-15.625
1642553913.973,18.555,37.109,42.480,19.531,40.039
1642553913.963,31.738,26.367,21.973,21.484,29.785
1642553913.967,37.598,18.066,16.602,27.344,-24.902
1642553913.971,33.203,25.391,44.434,29.297,0.488
1642553913.975,32.715,35.645,59.570,26.367,31.250
1642553913.979,42.480,40.039,63.965,29.785,9.277
1642553913.983,58.105,36.133,63.477,33.203,-11.230
1642553913.987,50.781,31.250,77.148,35.645,12.695
1642553913.990,33.691,30.762,87.891,33.203,40.039
1642553913.994,33.203,30.762,44.922,26.367,12.695
1642553913.998,41.016,31.250,35.156,28.320,38.574
1642553914.002,38.086,27.832,63.477,31.738,76.172
1642553914.006,17.578,22.461,45.898,22.949,48.828
1642553914.022,10.254,23.438,24.902,14.160,29.297
1642553914.026,15.137,26.367,32.715,10.742,36.621
1642553914.030,18.066,27.344,46.875,17.090,24.414
1642553914.034,8.301,23.438,71.289,20.996,33.691
1642553914.038,-7.324,18.066,32.715,10.254,40.039
1642553914.042,-6.836,16.602,-14.160,5.371,12.695
1642553914.046,2.930,12.695,32.715,10.254,26.855
1642553914.049,13.184,4.395,61.035,31.250,53.711
1642553914.053,29.785,15.625,38.574,51.270,25.391
1642553914.057,38.574,39.551,35.156,37.598,70.801
1642553914.061,28.320,43.945,25.391,7.812,107.422
1642553914.065,12.695,39.062,-13.184,-8.789,56.641
1642553914.066,8.789,41.504,-40.039,-6.836,18.555
1642553914.070,17.578,50.293,-26.367,-10.254,-2.441
1642553914.074,21.484,65.430,-24.414,-26.367,11.230
1642553914.078,2.441,66.406,-58.594,-44.922,7.812
1642553914.082,-3.906,57.617,-72.754,-39.062,3.418
1642553914.086,1.953,53.711,-57.617,-34.668,19.043
1642553914.090,11.230,53.223,-40.039,-34.668,46.387
1642553914.093,14.160,56.152,-47.852,-26.855,41.992
1642553914.097,-12.207,55.664,-69.824,-35.156,-3.418
1642553914.101,-14.160,50.781,-8.789,-37.598,-16.602
1642553914.105,7.324,54.199,28.809,-29.297,-29.297
1642553914.109,17.578,52.734,4.883,-13.672,-42.480
1642553914.111,18.555,41.016,10.254,-2.930,-3.418
1642553914.115,7.324,37.598,9.277,-8.301,64.941
1642553914.119,2.930,34.668,-7.812,-10.742,65.430
1642553914.123,13.672,40.527,-3.906,1.953,26.855
1642553914.127,11.719,46.387,3.906,6.348,39.062
1642553914.131,-4.883,44.434,-7.324,-0.488,4.883
1642553914.135,-4.883,40.527,-1.953,2.441,-23.926
1642553914.138,11.230,39.062,-7.812,10.254,-20.996
