timestamps,TP9,AF7,AF8,TP10,Right AUX
1641437240.446,40.039,18.066,103.027,119.629,-10.742
1641437240.450,21.973,11.230,236.328,87.402,21.484
1641437240.454,-5.859,6.836,208.496,-26.855,17.578
1641437240.458,15.625,14.160,48.340,-14.160,-35.156
1641437240.462,54.688,21.973,210.938,102.539,12.207
1641437240.466,45.898,18.066,346.680,109.863,35.156
1641437240.470,7.324,13.184,141.602,-12.695,-1.953
1641437240.473,7.812,10.742,-79.102,-37.598,32.227
1641437240.477,39.551,11.719,-105.469,69.336,65.430
1641437240.481,47.852,15.137,370.117,122.070,91.309
1641437240.485,11.719,16.602,508.301,25.391,96.680
1641437240.489,2.441,14.648,246.094,-30.273,66.406
1641437240.489,37.598,16.113,240.234,44.434,70.312
1641437240.493,58.594,18.555,408.203,117.676,110.352
1641437240.497,26.367,22.949,456.055,51.270,122.070
1641437240.501,-2.441,21.484,131.836,-54.688,84.961
1641437240.505,25.391,14.160,66.895,-4.883,57.617
1641437240.509,58.594,11.719,257.324,112.305,49.805
1641437240.513,41.504,16.113,257.324,96.191,70.801
1641437240.516,8.789,23.438,-154.297,-31.738,19.043
1641437240.520,25.879,26.367,-231.445,-29.297,-23.926
1641437240.524,56.641,25.391,329.102,100.098,26.855
1641437240.528,47.363,23.926,400.879,116.699,12.207
1641437240.532,12.695,21.484,152.344,-4.883,-30.762
1641437240.534,10.254,23.438,131.348,-47.363,-11.719
1641437240.538,39.551,24.902,290.039,55.176,36.133
1641437240.542,46.387,22.461,350.586,125.488,37.109
1641437240.546,10.254,16.113,229.980,27.344,44.922
1641437240.550,-2.930,15.137,63.965,-55.664,56.152
1641437240.554,28.320,20.996,34.180,20.020,61.035
1641437240.558,49.805,20.996,-25.879,110.352,42.480
1641437240.561,28.320,21.973,-309.570,52.246,41.016
1641437240.565,2.930,25.879,-171.875,-53.711,62.500
1641437240.569,19.531,24.414,32.715,-14.160,36.621
1641437240.573,53.223,21.973,85.938,93.262,70.312
1641437240.577,41.992,27.344,164.062,83.008,79.590
1641437240.580,7.812,25.391,34.668,-19.531,35.645
1641437240.584,15.625,16.602,-91.797,-24.414,-2.441
1641437240.588,47.363,16.602,-28.809,96.191,4.395
1641437240.592,49.316,19.531,148.438,136.719,66.406
1641437240.596,5.371,20.020,99.121,23.926,60.059
1641437240.600,-7.324,21.484,-178.223,-12.207,15.625
1641437240.604,26.855,19.531,-406.738,78.125,11.719
1641437240.607,41.992,20.020,-152.832,143.555,74.219
1641437240.611,8.301,21.973,48.828,63.477,91.309
1641437240.615,-10.254,20.996,-327.637,-25.879,6.348
1641437240.619,26.367,22.461,-397.949,37.598,-46.875
1641437240.623,56.152,21.973,-35.645,143.066,8.789
1641437240.640,33.203,11.719,77.637,107.422,45.898
1641437240.644,-5.371,6.348,-163.574,-19.043,37.109
1641437240.648,10.742,14.160,-248.047,-1.465,48.340
1641437240.652,48.828,20.996,-52.246,131.348,69.824
1641437240.656,36.621,21.484,78.125,141.113,110.352
1641437240.660,13.672,22.949,-277.832,27.344,52.734
1641437240.664,26.367,21.484,-438.965,17.090,2.441
1641437240.667,39.551,19.043,-44.922,113.281,42.480
1641437240.671,37.598,13.672,70.801,137.695,30.762
1641437240.675,10.254,10.742,-252.441,37.598,-9.277
1641437240.679,2.930,11.230,-400.879,-21.973,39.062
1641437240.683,40.039,6.348,-202.148,64.941,113.770
1641437240.684,57.129,10.742,0.000,144.043,101.562
1641437240.688,20.996,15.625,-126.953,53.711,6.836
1641437240.692,-5.859,16.602,-318.359,-50.293,-27.832
1641437240.696,23.438,24.414,-95.215,3.906,38.086
1641437240.700,57.617,24.902,60.059,104.980,79.102
1641437240.704,43.945,25.391,-27.832,85.449,60.547
1641437240.708,14.160,27.832,-223.145,-20.508,8.789
1641437240.711,28.809,28.320,-160.645,-12.207,26.367
1641437240.715,65.918,31.250,97.656,104.492,132.324
1641437240.719,58.105,29.785,-0.488,114.258,147.949
1641437240.723,11.719,26.367,1.953,-4.883,62.012
1641437240.727,8.301,26.855,121.094,-26.367,69.824
1641437240.745,49.316,29.785,116.699,99.609,83.008
1641437240.749,57.129,31.738,264.160,157.715,66.895
1641437240.753,16.113,29.785,180.176,38.574,95.215
1641437240.757,2.441,26.367,-12.695,-39.551,54.199
1641437240.761,38.574,23.926,-27.832,37.109,19.043
1641437240.765,55.176,26.855,1.953,124.512,56.152
1641437240.769,21.973,27.832,56.152,59.082,39.062
1641437240.772,0.488,19.531,67.383,-55.664,6.348
1641437240.776,20.020,11.719,-172.363,-13.184,-17.090
1641437240.780,45.898,15.137,-212.402,90.820,6.348
1641437240.784,29.785,21.973,149.902,59.082,46.875
1641437240.788,-2.441,21.484,5.371,-69.824,-3.906
1641437240.790,12.207,20.996,-196.289,-70.312,-25.391
1641437240.794,51.758,26.855,-61.523,36.133,17.578
1641437240.798,50.293,21.973,134.277,51.758,99.609
1641437240.802,14.648,17.090,-53.711,-48.828,72.754
1641437240.806,13.672,14.160,-330.566,-84.961,-18.066
1641437240.810,45.410,8.789,-371.582,20.508,-39.062
1641437240.814,60.547,17.090,-238.770,104.004,-24.414
1641437240.817,31.250,24.902,-291.992,18.066,-3.906
1641437240.821,5.371,23.438,-405.273,-62.012,46.387
1641437240.825,30.273,20.996,-227.539,13.672,65.430
1641437240.829,51.270,22.461,-11.719,121.094,62.012
1641437240.833,19.531,21.484,-77.148,77.148,87.402
1641437240.819,-4.883,20.020,-634.277,-37.598,17.090
1641437240.823,16.113,21.973,-559.570,-0.488,13.184
1641437240.827,44.922,17.578,-45.410,104.492,72.754
1641437240.831,39.062,15.137,-41.016,99.121,70.312
1641437240.835,7.324,21.484,-223.145,-12.207,40.527
1641437240.839,10.254,24.414,-423.340,-32.715,1.465
1641437240.843,43.457,24.902,-295.898,74.219,32.715
1641437240.846,41.504,25.391,-86.914,115.234,82.031
1641437240.850,2.441,24.902,-227.051,4.883,42.480
1641437240.854,-3.418,22.461,-269.531,-55.664,12.207
1641437240.858,31.738,22.949,-92.773,41.992,29.785
1641437240.862,48.828,25.879,-182.617,119.629,33.691
1641437240.865,13.672,17.578,-436.523,25.879,34.668
1641437240.869,-4.395,17.090,-259.766,-53.223,44.922
1641437240.873,29.297,24.414,-115.234,20.508,29.785
1641437240.877,53.223,22.949,-66.895,123.535,47.363
1641437240.881,25.879,24.414,71.289,87.891,99.609
1641437240.885,-6.836,29.297,-159.180,-28.809,42.969
1641437240.889,12.695,35.645,-327.148,-0.977,48.828
1641437240.892,54.199,32.227,-285.156,132.324,118.652
1641437240.896,51.270,31.738,-54.688,143.555,110.840
1641437240.900,7.324,30.273,135.742,13.184,128.418
1641437240.904,1.953,23.438,-81.543,-24.414,81.543
1641437240.908,34.180,24.414,-119.141,83.984,19.531
1641437240.910,40.039,29.785,145.508,146.484,77.148
1641437240.914,1.465,33.691,187.988,32.227,88.379
1641437240.918,-5.371,32.227,-160.645,-53.711,11.719
1641437240.922,31.250,32.227,-216.309,33.203,26.367
1641437240.926,46.875,33.203,164.062,123.047,61.035
1641437240.930,16.602,26.855,74.707,51.270,31.250
1641437240.934,-13.672,16.113,-410.156,-52.734,-14.160
1641437240.937,7.324,6.836,-469.238,5.371,-9.766
1641437240.941,37.109,14.648,49.805,118.164,74.219
1641437240.945,22.461,25.879,227.051,98.145,142.578
1641437240.949,-8.301,23.926,-19.043,-13.672,118.164
1641437240.953,3.418,24.414,-107.910,-12.695,79.590
1641437240.971,36.133,25.879,72.754,92.285,104.004
1641437240.975,30.273,23.438,99.609,106.445,86.914
1641437240.979,-5.371,20.996,-161.621,-14.648,73.242
1641437240.983,-4.883,21.484,-155.273,-56.641,86.914
1641437240.987,31.250,19.531,22.461,45.410,68.848
1641437240.991,37.598,16.113,1.465,106.934,80.078
1641437240.995,6.348,17.578,-351.074,3.418,85.449
1641437240.998,-0.977,19.531,-397.461,-70.801,56.152
1641437241.002,29.785,24.902,-103.027,18.066,25.879
1641437241.006,55.176,25.391,-2.441,113.281,22.461
1641437241.010,31.250,22.461,-3.906,55.176,50.293
1641437241.014,0.000,25.879,-51.270,-53.711,58.105
1641437241.015,23.926,25.391,-0.977,-4.395,72.754
1641437241.019,60.547,19.043,48.828,114.258,68.359
1641437241.023,41.504,18.066,50.781,110.840,78.125
1641437241.027,10.742,28.809,8.301,-2.930,57.129
1641437241.031,19.043,31.738,-131.836,-15.137,17.578
1641437241.035,42.969,24.902,-184.082,108.887,62.012
1641437241.039,39.551,25.391,-107.910,139.160,70.312
1641437241.042,-1.953,25.879,-108.887,13.184,19.043
1641437241.046,-9.766,23.438,-10.742,-40.039,51.758
1641437241.050,20.996,23.926,-154.297,57.617,47.852
1641437241.054,35.156,26.855,-298.828,132.324,10.254
1641437241.058,3.418,21.973,24.902,40.039,29.785
1641437241.060,-11.230,17.578,16.602,-45.898,20.996
1641437241.064,24.902,19.043,-64.941,20.508,62.012
1641437241.068,44.434,22.949,150.391,104.004,117.676
1641437241.072,18.066,29.785,235.840,51.270,139.648
1641437241.076,-20.020,27.832,56.641,-63.965,91.797
1641437241.080,-10.742,23.926,-150.879,-33.691,11.719
1641437241.084,21.484,25.879,-84.473,75.195,13.184
1641437241.087,11.719,27.344,95.703,71.289,58.105
1641437241.091,-26.855,27.344,-13.672,-33.203,7.812
1641437241.095,-20.996,23.438,-441.895,-42.480,-55.176
1641437241.099,21.484,15.625,-299.316,65.430,-0.488
1641437241.103,40.039,11.230,193.359,102.539,44.922
1641437241.105,15.625,13.184,26.367,14.160,4.395
1641437241.109,-8.301,24.902,-151.367,-46.387,-45.898
1641437241.113,16.113,33.691,-51.270,17.578,-35.645
1641437241.117,47.363,30.273,72.754,101.074,-5.371
1641437241.121,25.879,29.785,-127.930,32.227,11.230
1641437241.125,7.324,29.785,-477.051,-62.012,-17.090
1641437241.129,34.180,24.414,-454.590,5.371,-11.230
1641437241.132,59.570,23.438,-85.938,108.398,28.809
1641437241.136,33.203,21.973,-138.672,75.195,52.246
1641437241.140,-0.977,18.555,-513.672,-40.039,43.945
1641437241.144,16.113,22.949,-402.344,-25.391,42.969
1641437241.148,49.316,28.320,-118.652,87.402,39.062
1641437241.150,44.434,28.320,-96.680,84.961,33.691
1641437241.154,13.184,28.809,-221.680,-25.391,39.551
1641437241.158,18.066,27.832,-217.285,-46.387,27.344
1641437241.162,54.199,22.949,-161.133,60.547,5.859
1641437241.166,58.594,24.414,-148.926,116.699,16.113
1641437241.170,18.066,22.949,-267.578,19.531,12.695
1641437241.174,6.836,21.973,-405.762,-41.992,-25.879
1641437241.177,39.062,19.043,-250.977,51.758,14.160
1641437241.181,54.199,15.625,-278.809,142.578,31.738
1641437241.185,22.949,19.043,-289.551,65.430,9.766
1641437241.189,-0.977,22.461,-119.141,-42.480,27.344
1641437241.193,27.344,23.438,-164.062,2.930,60.059
1641437241.196,56.152,24.414,-164.551,102.539,126.465
1641437241.200,34.668,27.832,-112.305,70.801,130.859
1641437241.204,-1.465,26.855,-126.465,-55.664,73.730
1641437241.208,8.301,25.391,-407.715,-61.035,58.594
1641437241.212,45.410,22.461,-350.586,52.734,102.539
1641437241.216,46.875,24.902,-104.492,75.684,98.145
1641437241.220,9.766,17.578,-323.730,-43.457,58.594
1641437241.223,7.812,12.695,-493.164,-79.590,54.688
1641437241.227,47.852,22.461,-276.367,36.621,41.016
1641437241.231,52.734,27.344,4.395,94.238,83.496
1641437241.235,10.742,24.414,-17.578,-8.789,106.934
1641437241.239,-1.953,24.902,-431.152,-70.312,36.133
1641437241.240,32.227,25.879,-442.871,20.996,31.738
1641437241.244,56.152,25.879,48.828,111.328,75.684
1641437241.248,20.020,20.020,35.645,50.293,44.922
1641437241.252,-8.301,17.090,-282.227,-51.270,-14.648
1641437241.256,20.020,16.602,-313.477,2.441,-0.977
1641437241.260,49.805,13.672,-136.719,116.699,41.992
1641437241.264,39.062,24.414,-162.598,94.727,8.789
1641437241.267,0.977,28.809,-597.656,-26.855,-52.734
1641437241.271,8.301,22.461,-645.996,-30.762,-38.574
1641437241.275,44.922,20.020,-45.898,92.773,21.484
1641437241.279,46.387,22.461,60.547,123.535,47.852
1641437241.283,8.789,21.973,-177.734,1.953,14.648
1641437241.285,3.906,19.531,-200.684,-51.758,22.461
1641437241.289,40.039,22.949,-83.496,43.457,42.969
1641437241.293,46.875,24.902,-45.410,116.211,22.461
1641437241.297,12.695,20.996,-69.336,24.414,-3.418
1641437241.301,-9.766,14.648,-113.281,-61.035,23.926
1641437241.305,12.695,8.789,-200.195,8.301,48.828
1641437241.309,38.086,10.742,-316.406,103.516,-13.672
1641437241.312,11.230,21.973,-471.191,55.664,-28.809
1641437241.316,-20.996,26.855,-344.238,-53.711,-17.090
1641437241.320,1.953,27.344,-182.617,-15.137,-0.977
1641437241.324,34.180,28.809,-104.004,93.262,54.199
1641437241.328,28.809,29.297,-20.508,90.332,60.547
1641437241.345,0.488,29.785,-81.055,-16.602,20.020
1641437241.349,1.953,28.809,-213.379,-32.715,-10.742
1641437241.353,39.062,26.855,-163.086,84.473,0.000
1641437241.357,49.316,20.020,-8.789,119.141,33.691
1641437241.361,8.301,20.020,-54.199,5.859,34.668
1641437241.365,8.789,27.344,-265.625,-39.551,50.781
1641437241.369,52.246,30.762,-501.953,52.246,58.105
1641437241.372,65.430,31.738,-330.566,121.094,37.109
1641437241.376,31.738,36.621,-48.340,29.297,48.340
1641437241.380,8.789,32.227,-368.652,-69.336,24.902
1641437241.384,40.039,24.902,-514.648,2.441,2.441
1641437241.388,61.035,23.926,-149.414,107.910,33.203
1641437241.390,37.598,25.391,-2.441,68.359,55.664
1641437241.394,11.230,26.855,-280.273,-47.363,43.457
1641437241.398,18.066,21.973,-414.062,-30.762,30.762
1641437241.402,45.898,18.555,-153.320,90.332,51.758
1641437241.406,40.039,22.461,-23.438,100.586,42.969
1641437241.410,-6.348,22.949,-408.203,-24.902,28.320
1641437241.414,-9.277,22.461,-639.160,-57.617,-10.742
1641437241.417,28.320,26.367,-278.320,56.641,6.348
1641437241.421,35.156,27.832,-13.184,112.305,28.320
1641437241.425,-3.418,20.508,-357.422,3.906,-24.902
1641437241.429,-11.719,20.020,-694.824,-64.453,-15.625
1641437241.433,27.832,23.926,-335.938,27.832,31.250
1641437241.435,56.152,19.531,-139.648,133.789,60.547
1641437241.439,26.855,19.531,-286.133,71.777,87.891
1641437241.443,-0.488,23.438,-366.699,-26.367,53.223
1641437241.447,23.926,28.809,-264.160,30.762,28.809
1641437241.451,43.945,28.809,-122.070,136.230,52.246
1641437241.455,25.879,27.344,-195.801,111.328,46.387
1641437241.459,0.000,29.297,-418.945,1.465,36.621
1641437241.462,12.207,25.391,-325.195,5.371,20.020
1641437241.466,45.898,21.484,-149.414,121.582,12.695
1641437241.470,46.875,20.508,-335.449,139.648,46.875
1641437241.474,13.672,25.391,-371.094,16.602,31.738
1641437241.478,11.230,28.809,-232.422,-15.137,-34.668
1641437241.480,41.504,24.414,-287.109,94.238,-22.949
1641437241.484,54.688,27.344,-235.840,155.762,29.785
1641437241.488,20.020,29.297,-237.305,45.898,9.766
1641437241.492,-3.906,22.461,-403.320,-37.109,10.742
1641437241.496,24.414,19.531,-430.664,39.062,32.227
1641437241.500,45.410,22.461,-439.453,116.699,23.438
1641437241.504,25.879,30.762,-353.516,58.594,45.410
1641437241.507,5.371,34.180,-291.016,-50.781,17.578
1641437241.511,22.949,34.180,-557.129,-20.508,-27.344
1641437241.515,56.641,33.691,-602.539,90.820,-22.949
1641437241.519,47.363,24.414,-188.477,79.102,-27.344
1641437241.523,16.113,25.879,-198.730,-32.715,42.969
1641437241.525,25.391,33.203,-381.348,-41.504,65.918
1641437241.529,57.129,31.738,-250.977,77.148,40.039
1641437241.533,55.176,32.715,-9.277,124.023,69.824
1641437241.537,21.973,34.180,-146.973,18.066,33.203
1641437241.541,8.789,29.785,-377.930,-41.016,41.016
1641437241.545,34.668,29.785,-349.609,52.734,67.383
1641437241.549,50.781,27.832,-211.426,126.465,52.734
1641437241.552,17.578,24.902,-254.395,32.227,47.363
1641437241.556,14.648,30.762,-501.465,-44.922,44.434
1641437241.560,51.270,28.809,-369.629,27.832,29.785
1641437241.564,49.805,18.066,17.090,104.004,43.945
1641437241.568,9.766,17.578,-163.574,45.898,67.383
1641437241.570,-7.812,18.066,-507.324,-52.246,25.391
1641437241.574,14.160,22.949,-300.293,-13.672,32.715
1641437241.578,36.133,24.902,88.379,96.191,94.238
1641437241.582,21.973,22.949,9.277,74.707,63.965
1641437241.586,-10.742,19.531,-224.121,-41.992,-5.371
1641437241.590,-8.301,19.531,-249.512,-47.852,-31.738
1641437241.594,30.273,23.926,-107.422,63.477,22.949
1641437241.597,37.598,19.043,-30.762,93.750,42.480
1641437241.601,-2.930,15.625,-254.395,-27.344,-16.602
1641437241.605,-8.301,19.043,-182.129,-85.449,-1.465
1641437241.609,25.879,17.090,65.918,4.395,63.965
1641437241.613,33.691,13.184,-30.762,77.637,65.918
1641437241.615,3.418,17.578,-197.754,-9.277,40.039
1641437241.619,-10.254,20.508,-94.238,-102.539,24.902
1641437241.623,14.160,19.043,-82.520,-39.551,9.277
1641437241.627,40.039,22.461,-19.043,58.105,24.414
1641437241.631,22.461,27.344,68.359,19.043,22.461
1641437241.635,-2.441,24.414,-121.094,-94.238,33.691
1641437241.639,10.742,24.414,-201.172,-71.289,59.082
1641437241.642,48.340,27.344,-321.777,60.547,40.039
1641437241.646,53.711,25.879,-221.680,83.008,25.879
1641437241.650,16.602,22.461,62.012,-29.297,4.883
1641437241.654,11.719,20.508,-112.793,-65.918,-20.020
1641437241.658,46.875,18.555,-115.234,36.621,-23.438
1641437241.667,52.246,19.531,133.301,87.402,27.344
1641437241.671,12.207,22.949,131.836,-31.738,57.617
1641437241.675,4.395,24.414,-240.234,-123.535,-9.277
1641437241.679,46.387,27.832,-284.180,-60.547,-23.926
1641437241.683,64.453,28.809,68.848,7.324,6.836
1641437241.687,31.738,23.926,-64.453,-68.359,-12.207
1641437241.691,7.324,20.996,-451.172,-169.922,-55.664
1641437241.694,29.297,23.926,-442.871,-126.953,-39.551
1641437241.698,55.664,24.414,-166.504,-35.156,-15.625
1641437241.702,36.133,20.020,-59.082,-56.641,-18.066
1641437241.706,10.254,20.508,-519.531,-157.227,-51.758
1641437241.710,26.367,28.809,-745.117,-146.973,-59.570
1641437241.710,58.105,30.273,-212.402,-23.926,14.648
1641437241.714,53.223,29.297,-110.352,8.789,-11.230
1641437241.718,17.090,26.367,-468.262,-94.727,-86.426
1641437241.722,15.137,25.879,-650.879,-127.441,-121.094
1641437241.726,47.852,28.809,-468.750,-14.648,-88.867
1641437241.730,51.270,27.832,-361.816,60.059,-63.477
1641437241.734,9.277,28.320,-695.801,-41.504,-91.309
1641437241.737,-1.465,29.297,-981.934,-104.004,-99.121
1641437241.741,31.250,28.320,-958.008,-10.742,-73.242
1641437241.745,53.711,22.461,-552.734,86.426,-37.109
1641437241.749,36.133,11.719,-209.473,45.898,-10.254
1641437241.753,23.438,19.043,-277.344,-49.805,6.836
1641437241.765,23.926,38.574,-341.309,-34.180,2.930
1641437241.769,36.133,41.504,-351.562,51.758,28.809
1641437241.773,24.902,30.273,-323.242,29.297,53.223
1641437241.777,-11.230,31.738,-356.445,-90.820,-1.953
1641437241.781,-15.625,37.598,-447.266,-116.211,-10.742
1641437241.785,11.230,28.809,-512.695,-19.043,9.766
1641437241.789,18.555,23.926,-573.730,23.438,-1.465
1641437241.792,-20.020,34.668,-418.945,-76.172,20.020
1641437241.796,-31.738,36.621,-312.988,-125.000,25.391
1641437241.800,1.465,32.227,-292.480,-39.551,19.531
1641437241.804,19.043,27.832,-109.863,33.691,38.086
1641437241.808,-8.301,22.949,-43.945,-36.621,67.383
1641437241.811,-27.344,20.020,-225.586,-114.258,33.691
1641437241.815,1.465,21.484,-309.082,-47.363,-21.973
1641437241.819,28.320,26.367,-110.840,59.082,45.898
1641437241.823,5.859,27.832,-11.719,25.879,57.617
1641437241.827,-19.531,26.367,-191.406,-82.031,-33.203
1641437241.831,-3.906,21.973,-324.707,-45.410,-27.832
1641437241.835,25.879,24.902,-190.918,80.566,30.762
1641437241.838,19.531,30.762,-85.449,87.402,1.953
1641437241.842,-11.719,26.855,-211.914,-27.832,-20.508
1641437241.846,-4.883,16.602,-550.781,-41.992,-19.531
1641437241.850,26.855,17.578,-421.387,69.336,-17.090
1641437241.854,37.109,26.367,87.402,115.723,29.297
1641437241.855,7.324,30.762,-56.641,18.555,22.949
1641437241.859,2.930,34.180,-211.914,-33.691,37.109
1641437241.863,41.016,35.156,27.832,68.848,96.680
1641437241.867,58.594,37.598,231.934,154.297,121.094
1641437241.871,25.391,33.203,85.449,69.824,83.008
1641437241.875,-2.441,23.926,-214.844,-37.109,14.160
1641437241.879,22.949,24.902,-260.742,30.762,19.531
1641437241.882,55.664,28.320,73.730,147.461,54.688
1641437241.886,35.156,22.461,-38.574,121.582,3.418
1641437241.890,-5.371,15.625,-443.359,5.859,11.230
1641437241.894,7.812,24.902,-297.363,29.297,45.898
1641437241.898,41.992,28.320,45.410,176.270,74.219
1641437241.915,29.785,26.855,125.000,193.359,130.371
1641437241.919,-6.836,29.297,-39.551,65.918,105.469
1641437241.923,-2.930,30.762,-29.785,35.156,78.613
1641437241.927,27.832,27.344,53.711,142.578,118.164
1641437241.931,31.250,22.949,104.004,193.359,137.695
1641437241.935,1.953,29.297,-26.855,91.309,65.918
1641437241.939,1.953,33.691,-218.750,33.691,39.062
1641437241.942,37.598,23.438,-134.766,116.211,125.000
1641437241.946,56.152,14.648,-222.168,191.406,125.000
1641437241.950,26.855,21.973,-206.543,127.441,73.730
1641437241.954,-3.906,26.855,-59.570,23.926,63.477
1641437241.958,20.508,29.785,-156.738,67.383,51.270
1641437241.946,54.688,31.250,-59.082,169.922,51.270
1641437241.950,30.273,21.973,61.035,146.484,50.781
1641437241.954,-11.230,18.555,-26.367,17.578,26.367
1641437241.958,-10.254,19.043,-201.172,5.859,-22.461
1641437241.962,21.973,20.508,-145.996,114.746,-58.105
1641437241.966,29.297,25.391,41.504,128.418,-7.812
1641437241.970,-5.859,25.391,-7.324,13.672,7.812
1641437241.973,-10.254,14.648,-98.145,-28.320,-34.668
1641437241.977,30.273,16.602,-40.527,59.082,-17.578
1641437241.981,40.039,24.414,175.293,116.211,34.180
1641437241.985,6.348,22.949,167.969,19.531,45.410
1641437241.989,-3.906,20.020,-284.180,-58.105,-24.902
1641437241.990,27.344,17.578,-573.730,24.414,-43.945
1641437241.994,54.199,20.508,-0.488,120.117,84.473
1641437241.998,27.832,26.367,207.520,58.105,117.676
1641437242.002,-6.836,26.855,-213.867,-52.734,26.367
1641437242.006,8.789,23.926,-251.953,-13.672,45.898
1641437242.010,42.969,26.367,-41.504,99.121,95.703
1641437242.014,34.180,26.855,-70.801,78.125,41.504
1641437242.017,-11.230,17.090,-492.676,-40.039,-11.230
1641437242.021,-9.766,17.578,-606.445,-34.180,-39.062
1641437242.025,35.645,33.691,-104.004,90.332,-11.230
1641437242.029,44.434,36.133,18.555,138.184,9.766
1641437242.033,11.230,30.273,-190.918,25.391,8.301
1641437242.051,0.000,35.156,-288.574,-29.785,0.977
1641437242.055,39.062,39.551,-228.027,74.707,39.551
1641437242.059,51.270,35.645,-221.191,160.156,81.543
1641437242.063,7.812,41.992,-443.848,80.566,57.129
1641437242.067,0.977,50.293,-675.781,9.766,-9.277
1641437242.071,34.668,49.805,-828.613,91.309,21.973
1641437242.075,38.574,40.039,-924.805,179.688,62.012
1641437242.078,-1.465,34.180,-968.750,129.883,5.371
1641437242.082,-25.391,44.434,-969.238,36.133,-16.113
1641437242.086,-8.789,51.270,-968.750,75.684,8.301
1641437242.090,19.531,58.594,-969.727,188.477,43.945
1641437242.094,1.465,55.176,-969.727,189.941,41.992
1641437242.080,-48.828,50.781,-969.727,80.566,9.277
1641437242.084,-49.316,51.758,-969.727,47.363,29.297
1641437242.088,-10.254,53.223,-969.727,145.508,55.664
1641437242.092,-2.441,64.453,-969.238,181.152,72.266
1641437242.096,-44.922,71.289,-969.238,52.246,64.453
1641437242.100,-56.152,73.242,-969.727,-15.137,32.227
1641437242.104,-22.461,76.172,-969.727,74.219,16.113
1641437242.107,-16.113,77.637,-969.727,141.602,82.520
1641437242.111,-53.711,75.684,-969.238,22.949,120.117
1641437242.115,-85.449,68.848,-969.727,-110.840,61.035
1641437242.119,-63.965,62.500,-969.727,-61.035,54.688
1641437242.123,-31.738,63.965,-969.238,38.574,93.750
1641437242.140,-49.316,60.059,-969.727,7.812,99.609
1641437242.144,-67.871,52.734,-962.402,-114.746,90.820
1641437242.148,-49.805,49.805,-982.422,-114.258,71.777
1641437242.152,-14.160,49.316,-916.016,19.043,80.078
1641437242.156,-16.602,47.852,-717.773,33.691,127.930
1641437242.160,-46.387,44.434,-835.449,-90.332,85.449
1641437242.164,-37.109,44.922,-922.852,-135.254,36.133
1641437242.167,-0.488,45.898,-548.828,-47.852,58.105
1641437242.171,14.160,40.039,-167.969,5.371,93.262
1641437242.175,-19.531,30.762,-299.316,-117.676,64.453
1641437242.179,-36.133,29.297,-397.949,-194.824,21.973
1641437242.183,-1.953,25.391,-54.199,-103.516,59.570
1641437242.185,28.809,20.996,100.098,-15.137,73.242
1641437242.189,7.324,21.973,-5.371,-79.590,51.270
1641437242.193,-13.184,24.902,27.344,-167.480,58.105
1641437242.197,15.137,26.855,272.949,-109.863,100.098
1641437242.201,47.363,25.879,436.523,-10.254,119.141
1641437242.205,36.133,23.926,397.949,-16.602,125.488
1641437242.209,8.789,19.531,212.402,-107.910,80.566
1641437242.212,26.367,15.625,308.105,-109.375,44.434
1641437242.216,60.059,11.719,583.984,13.672,80.566
1641437242.220,54.199,7.812,444.336,31.738,70.801
1641437242.224,17.090,6.348,494.629,-72.266,14.160
1641437242.228,18.555,9.766,739.746,-81.055,-28.320
1641437242.230,56.152,18.555,798.828,30.273,-14.160
1641437242.234,67.871,20.508,938.477,101.562,47.852
1641437242.238,34.180,14.648,991.211,10.254,43.945
1641437242.242,20.996,11.719,929.688,-52.734,6.348
1641437242.246,46.875,9.277,952.148,46.387,10.254
1641437242.250,76.660,6.348,972.656,159.668,39.551
1641437242.254,61.523,12.207,998.047,127.930,64.453
1641437242.257,26.367,6.836,-993.164,34.668,54.199
1641437242.261,42.480,-5.859,972.656,81.543,11.719
1641437242.265,73.242,-3.418,951.660,202.637,-16.602
1641437242.269,64.453,3.418,-999.023,198.730,11.230
1641437242.273,27.832,3.418,-999.023,83.496,27.344
1641437242.275,29.297,3.906,997.559,73.730,34.180
1641437242.279,62.500,6.348,999.512,177.734,51.758
1641437242.283,63.477,6.348,999.512,193.359,64.453
1641437242.287,22.949,2.441,999.512,61.523,45.898
1641437242.291,12.695,3.906,999.512,2.441,10.742
1641437242.295,48.340,8.789,999.512,101.074,-7.324
1641437242.299,66.895,10.742,999.512,168.945,58.105
1641437242.302,43.457,5.859,999.512,69.824,83.008
1641437242.306,31.738,0.488,999.512,-14.160,20.996
1641437242.310,62.012,5.371,999.512,71.777,40.527
1641437242.314,89.844,12.207,999.512,181.152,108.398
1641437242.318,66.406,16.113,999.512,139.648,53.711
1641437242.320,31.250,12.207,999.512,21.973,-2.930
1641437242.324,47.852,9.277,999.512,41.504,32.227
1641437242.328,78.613,11.230,999.512,159.668,60.547
1641437242.332,61.035,11.719,999.512,161.621,70.312
1641437242.336,27.832,12.695,999.512,43.945,53.223
1641437242.340,39.551,13.672,999.023,21.973,12.695
1641437242.344,74.707,15.137,999.512,127.441,53.711
1641437242.347,83.008,18.066,999.023,168.457,108.887
1641437242.351,40.527,19.531,996.094,62.500,70.312
1641437242.355,27.344,17.578,998.535,10.742,64.941
1641437242.359,61.523,16.602,999.512,94.727,67.871
1641437242.363,77.148,19.043,999.023,171.387,71.777
1641437242.395,43.457,19.531,999.512,89.844,52.734
1641437242.399,14.648,18.555,999.512,-16.113,13.184
1641437242.403,39.551,15.625,999.023,48.828,11.719
1641437242.407,68.848,12.207,996.582,150.879,19.043
1641437242.411,52.246,12.207,-992.676,111.328,-21.484
1641437242.415,16.113,12.207,941.895,-8.301,-20.508
1641437242.419,24.414,18.066,883.301,0.488,18.555
1641437242.422,59.082,23.926,937.500,120.605,1.953
1641437242.426,53.711,26.367,987.305,137.207,7.324
1641437242.430,16.602,22.461,-987.793,14.160,48.340
1641437242.434,11.719,23.926,837.891,-29.297,40.527
1641437242.438,49.316,29.297,603.516,69.824,18.066
1641437242.410,66.406,32.227,871.582,144.531,27.832
1641437242.414,30.762,28.320,996.582,53.223,20.996
1641437242.418,14.648,17.578,586.426,-32.227,-36.133
1641437242.422,47.852,20.996,486.816,29.297,-60.547
1641437242.426,70.801,31.738,811.523,112.305,-3.418
1641437242.430,41.992,34.180,643.555,52.246,3.906
1641437242.434,14.648,37.598,218.750,-50.781,-40.527
1641437242.437,36.621,38.086,237.305,16.113,-4.395
1641437242.441,70.312,34.668,479.004,134.277,63.965
1641437242.445,47.852,35.156,466.797,109.375,75.684
1641437242.449,8.301,29.297,125.488,-15.625,76.172
1641437242.453,19.043,36.621,-122.070,-20.508,45.898
1641437242.470,41.504,35.645,-87.891,90.820,74.707
1641437242.474,36.621,27.344,-126.465,122.559,100.586
1641437242.478,-4.883,25.879,-621.582,34.668,0.000
1641437242.482,-1.465,37.109,-1000.000,18.066,-58.105
1641437242.486,31.250,44.922,-953.613,113.770,46.875
1641437242.490,24.902,26.367,-965.332,170.410,104.004
1641437242.494,-9.277,31.738,-970.703,59.570,-16.113
1641437242.497,-28.809,39.551,-969.238,-27.344,-43.945
1641437242.501,5.859,40.527,-969.727,75.195,14.648
1641437242.505,26.367,44.922,-969.727,177.246,28.809
1641437242.509,-16.113,43.457,-969.727,116.211,23.926
1641437242.513,-54.688,52.246,-969.727,2.441,32.715
1641437242.516,-40.527,65.918,-969.727,42.480,20.020
1641437242.520,-19.043,66.895,-969.727,152.344,-17.090
1641437242.524,-40.527,69.824,-969.238,130.859,-35.156
1641437242.528,-70.312,81.055,-969.238,24.414,-69.824
1641437242.532,-67.871,80.566,-969.727,10.742,-38.574
1641437242.536,-46.875,72.754,-969.727,103.027,5.371
1641437242.540,-45.898,73.242,-969.727,127.930,27.832
1641437242.543,-78.125,76.172,-969.727,-0.488,22.461
1641437242.547,-91.309,70.312,-969.238,-88.379,-10.742
1641437242.551,-57.617,74.707,-969.238,-13.184,-27.832
1641437242.555,-48.340,82.031,-969.727,45.410,-32.715
1641437242.559,-80.078,83.984,-969.727,-53.711,-17.090
1641437242.560,-94.727,77.148,-969.727,-181.641,1.465
1641437242.564,-66.406,69.824,-969.727,-156.250,3.906
1641437242.568,-37.598,69.336,-969.238,-77.148,34.668
1641437242.572,-63.477,65.430,-971.191,-136.230,61.035
1641437242.576,-87.891,60.547,-961.914,-265.625,63.477
1641437242.580,-56.641,46.875,-979.004,-254.395,19.043
1641437242.584,-9.277,41.016,-944.824,-124.023,-23.438
1641437242.587,-2.441,51.758,-771.973,-91.797,23.926
1641437242.591,-26.855,47.363,-760.742,-208.984,-2.441
1641437242.595,-7.324,39.551,-975.098,-217.285,-61.035
1641437242.599,41.992,41.016,-785.156,-64.941,-12.695
1641437242.603,49.805,33.691,-186.035,-9.277,41.992
1641437242.605,11.719,26.367,-185.547,-125.000,14.160
1641437242.609,-1.465,19.043,-364.258,-189.453,-28.320
1641437242.613,38.574,15.137,-127.930,-84.961,12.207
1641437242.617,59.082,16.602,133.301,10.742,31.250
1641437242.621,32.227,5.859,125.488,-42.480,17.578
1641437242.625,15.137,-2.930,-93.262,-135.254,-9.766
1641437242.629,52.246,6.348,-113.770,-77.637,-20.996
1641437242.632,85.449,8.789,185.059,35.156,7.324
1641437242.636,62.500,7.324,146.484,14.160,-18.066
1641437242.640,33.691,8.301,-96.191,-119.629,-41.016
1641437242.644,50.781,8.301,104.492,-126.465,5.859
1641437242.648,88.867,7.812,336.914,8.789,36.621
1641437242.650,84.961,5.859,385.742,30.762,24.902
1641437242.654,45.410,1.953,312.988,-79.590,-9.766
1641437242.658,46.875,1.465,383.789,-102.051,-4.883
1641437242.662,79.102,-4.883,478.516,10.254,25.879
1641437242.666,93.262,-12.207,562.500,78.125,24.414
1641437242.670,68.359,-5.859,425.781,-12.207,-30.762
1641437242.674,55.664,0.000,317.383,-60.059,-9.277
1641437242.677,85.449,1.465,472.656,44.434,-14.648
1641437242.681,107.422,1.953,461.914,151.367,-0.977
1641437242.685,87.402,2.930,574.219,107.910,49.316
1641437242.689,57.129,4.395,712.891,25.879,10.742
1641437242.693,69.824,0.488,669.922,70.801,-14.648
1641437242.696,112.793,-0.488,844.238,173.828,29.297
1641437242.700,99.121,-0.488,940.430,158.203,-2.441
1641437242.704,58.105,-0.488,830.566,57.617,-25.391
1641437242.708,69.336,-1.465,693.359,67.871,28.320
1641437242.712,98.633,-9.277,788.086,165.527,64.453
1641437242.716,91.797,-1.953,969.238,177.734,54.688
1641437242.720,55.176,3.418,955.078,56.641,20.020
1641437242.723,50.781,3.418,706.543,14.160,-25.391
1641437242.727,78.613,6.836,649.902,115.234,-26.367
1641437242.731,95.215,6.836,-995.605,178.223,28.809
1641437242.735,60.059,6.836,-985.840,75.195,37.109
1641437242.739,35.645,5.371,917.969,-11.230,-7.812
1641437242.740,67.383,6.348,939.941,73.242,-24.414
1641437242.744,92.773,9.277,-995.605,171.875,18.555
1641437242.748,62.012,5.859,-993.164,119.141,-5.371
1641437242.752,31.250,1.465,917.480,1.465,-47.363
1641437242.756,48.828,2.930,796.387,25.391,-66.895
1641437242.760,75.195,7.324,893.066,126.953,-27.344
1641437242.764,63.477,13.672,-986.328,111.328,-4.883
1641437242.767,27.344,13.672,607.422,-13.672,-50.781
1641437242.771,34.668,12.207,458.496,-42.969,-53.711
1641437242.775,74.219,16.113,929.199,79.590,-21.484
1641437242.779,68.359,15.625,-998.535,133.789,-30.762
1641437242.783,26.367,14.160,882.812,18.555,-3.418
1641437242.800,28.320,14.160,820.801,-27.832,25.879
1641437242.804,61.523,12.695,891.602,70.312,11.719
1641437242.808,65.918,12.207,923.828,144.043,21.484
1641437242.812,32.715,11.230,832.520,64.941,25.391
1641437242.816,14.160,9.277,694.336,-29.785,-32.715
1641437242.820,38.086,9.277,587.402,23.926,-29.297
1641437242.824,63.965,14.160,554.199,121.582,33.203
1641437242.827,46.875,16.113,335.938,76.660,22.461
1641437242.831,11.230,17.090,386.230,-45.410,0.488
1641437242.835,26.855,19.531,536.133,-22.461,-18.066
1641437242.839,60.547,13.672,493.652,106.445,-15.625
1641437242.843,46.875,10.742,522.461,115.234,40.039
1641437242.830,13.672,15.625,488.281,-0.977,30.762
1641437242.834,9.766,19.043,351.074,-33.203,2.930
1641437242.838,44.922,16.602,321.289,62.988,22.461
1641437242.842,51.758,9.766,469.238,117.188,44.922
1641437242.846,11.719,12.695,462.891,18.066,17.578
1641437242.850,4.395,18.555,140.137,-39.551,-3.418
1641437242.854,38.086,21.484,139.160,61.035,-16.602
1641437242.857,58.105,24.902,443.848,148.438,-12.207
1641437242.861,27.832,26.855,507.812,67.871,3.418
1641437242.865,1.465,25.879,320.312,-30.273,-17.090
1641437242.869,26.855,23.438,-104.980,31.250,-78.125
1641437242.873,60.547,28.320,69.336,133.301,-49.805
1641437242.890,41.992,32.715,569.824,108.398,15.137
1641437242.894,6.348,23.438,329.590,-9.277,-18.066
1641437242.898,21.973,22.461,103.516,-12.695,-23.926
1641437242.902,60.547,18.555,304.688,104.492,-5.859
1641437242.906,62.988,14.648,441.406,131.348,2.441
1641437242.910,30.273,22.949,41.016,30.273,-19.531
1641437242.914,28.809,26.855,-227.051,-5.859,-56.152
1641437242.917,63.965,30.273,149.902,123.047,-4.883
1641437242.921,72.754,37.598,364.746,245.117,41.504
1641437242.925,38.086,37.598,67.383,149.902,-30.273
1641437242.929,19.531,29.785,-222.168,67.871,-65.918
1641437242.933,50.781,27.344,-104.004,151.367,-68.359
1641437242.935,79.102,29.785,-4.395,228.516,-37.598
1641437242.939,52.246,28.809,-274.414,161.621,-23.438
1641437242.943,18.066,26.367,-417.969,97.656,-66.895
1641437242.947,35.645,18.555,-173.828,209.473,-71.289
1641437242.951,66.895,15.137,-42.480,329.102,-55.176
1641437242.955,46.387,19.531,-95.703,296.387,-24.902
1641437242.959,12.695,27.832,-232.422,189.941,-26.855
1641437242.962,21.484,30.762,-120.605,171.387,-10.254
1641437242.966,53.711,24.414,-45.410,256.836,-13.672
1641437242.970,56.152,24.902,-332.031,282.715,-57.129
1641437242.974,17.578,25.391,-343.750,181.641,-53.711
1641437242.978,12.695,23.926,-142.090,138.184,-36.133
1641437242.980,52.246,24.902,-150.391,214.355,-41.016
1641437242.984,69.824,24.414,42.480,265.137,0.000
1641437242.988,30.273,23.926,148.926,166.992,17.578
1641437242.992,8.301,20.508,-87.891,76.172,-22.461
1641437242.996,46.875,15.137,-227.539,147.461,-9.277
1641437243.000,70.312,21.484,-160.156,240.234,26.367
1641437243.004,42.480,24.414,7.812,197.266,36.133
1641437243.007,24.414,23.926,54.688,89.844,26.855
1641437243.011,46.387,24.414,-221.191,91.797,-23.926
1641437243.015,75.195,24.902,-277.832,186.523,-14.160
1641437243.019,64.941,26.367,167.480,184.570,20.996
1641437243.023,32.227,24.414,134.766,58.594,-4.395
1641437243.025,35.156,24.414,-32.715,10.254,9.277
1641437243.029,73.730,32.227,126.465,110.352,62.012
1641437243.033,78.613,33.203,295.898,150.879,111.816
1641437243.037,26.855,15.137,135.254,34.180,95.703
1641437243.041,9.277,13.184,-107.422,-37.598,46.875
1641437243.045,51.270,21.973,-193.359,34.668,65.430
1641437243.049,67.383,23.438,-136.230,114.258,125.977
1641437243.052,17.090,22.461,-139.160,47.363,115.234
1641437243.056,-4.883,23.926,-606.934,-45.410,50.781
1641437243.060,23.438,30.762,-694.336,5.859,31.738
1641437243.064,30.762,29.297,-98.633,109.863,144.043
1641437243.068,-11.719,24.902,-46.875,74.707,161.133
1641437243.070,-52.246,27.832,-350.586,-62.988,112.305
1641437243.074,-35.156,32.227,-410.645,-76.172,68.359
1641437243.078,-9.277,24.414,-283.691,21.973,59.570
1641437243.082,-27.832,18.066,-308.594,20.996,75.195
1641437243.086,-66.895,19.531,-480.957,-96.680,53.711
1641437243.090,-63.965,23.438,-617.188,-144.043,28.809
1641437243.094,-23.926,26.367,-494.141,-67.871,25.391
1641437243.097,-19.531,27.832,-373.535,-22.949,42.480
1641437243.101,-66.406,25.879,-690.430,-125.977,-5.371
1641437243.105,-88.867,26.855,-642.090,-180.664,-41.504
1641437243.109,-61.523,25.879,-356.934,-92.285,-14.648
1641437243.113,-48.828,26.855,-400.391,-9.766,2.441
1641437243.115,-79.102,27.832,-480.957,-68.848,14.160
1641437243.119,-99.121,27.344,-514.648,-152.832,-21.973
1641437243.123,-75.195,28.809,-604.004,-101.562,-51.758
1641437243.127,-54.199,24.414,-488.770,-12.695,40.527
1641437243.131,-73.242,17.090,-333.008,-45.410,91.309
1641437243.135,-104.492,20.508,-560.059,-137.695,-1.465
1641437243.139,-112.305,30.273,-712.891,-113.770,-16.602
1641437243.142,-88.867,33.691,-844.238,2.930,12.207
1641437243.146,-89.844,33.203,-761.719,24.414,12.207
1641437243.150,-133.301,34.180,-591.797,-71.289,27.344
1641437243.154,-140.137,32.715,-848.145,-101.074,-11.230
1641437243.158,-105.957,29.785,-904.297,-14.160,1.953
1641437243.161,-106.934,26.367,-699.219,51.758,31.738
1641437243.165,-152.832,27.832,-669.434,-43.457,20.508
1641437243.169,-161.621,23.438,-906.738,-135.742,-16.602
1641437243.173,-135.254,23.438,-891.602,-79.102,23.926
1641437243.177,-122.559,23.438,-522.461,14.160,101.562
1641437243.181,-144.531,13.672,-624.023,-45.898,37.598
1641437243.185,-158.203,11.719,-949.707,-141.602,-48.828
1641437243.188,-108.398,17.578,-929.199,-75.684,-69.336
1641437243.192,-66.895,20.996,-614.258,31.250,-32.715
1641437243.196,-70.801,26.367,-515.625,2.930,-31.738
1641437243.200,-90.332,25.879,-822.754,-114.258,-77.637
1641437243.204,-77.148,20.508,-936.035,-129.883,-64.453
1641437243.205,-35.156,21.484,-771.484,-42.969,-15.137
1641437243.209,-26.367,20.020,-702.637,-44.922,-26.367
1641437243.213,-56.152,18.555,-885.742,-168.945,-83.496
1641437243.217,-54.199,18.555,-957.031,-212.402,-80.566
1641437243.221,7.812,16.602,-793.945,-154.297,-53.223
1641437243.225,51.270,23.926,-740.234,-99.121,-27.832
1641437243.229,3.418,22.949,-892.578,-185.059,-77.148
1641437243.232,-50.293,20.508,-983.398,-292.969,-61.035
1641437243.236,0.488,20.508,-962.891,-211.914,15.625
1641437243.240,60.547,23.926,-969.238,-84.473,8.301
1641437243.244,44.922,28.809,-969.727,-106.445,22.461
1641437243.248,35.645,23.438,-969.727,-210.938,-20.508
1641437243.266,66.895,23.926,-969.727,-192.383,-29.785
1641437243.270,106.445,22.949,-969.727,-102.539,-9.766
1641437243.274,110.840,21.973,-969.727,-143.066,-34.180
1641437243.278,79.590,24.414,-969.727,-246.094,-104.004
1641437243.282,82.031,24.902,-969.727,-230.469,-97.656
1641437243.286,111.328,20.508,-969.727,-111.328,-40.527
1641437243.290,123.047,16.113,-969.727,-87.891,-51.758
1641437243.293,103.027,17.090,-970.703,-172.363,-29.785
1641437243.297,92.285,18.066,-960.449,-192.871,-13.184
1641437243.301,121.094,22.949,-988.281,-143.066,-66.406
1641437243.305,145.020,27.832,-894.043,-30.273,-104.492
1641437243.309,111.328,25.391,-756.348,-75.684,-55.176
1641437243.325,95.215,20.020,-792.480,-181.152,-20.508
1641437243.329,123.535,23.926,-751.953,-137.695,-35.156
1641437243.333,153.809,29.785,-519.531,-86.426,-67.871
1641437243.337,142.090,31.250,-403.320,-132.812,-120.117
1641437243.341,122.559,28.809,-547.852,-251.953,-190.918
1641437243.345,140.137,22.461,-664.551,-255.371,-197.754
1641437243.349,159.668,19.531,-597.656,-165.527,-218.262
1641437243.352,149.902,24.902,-410.645,-152.344,-217.285
1641437243.356,117.188,27.832,-510.742,-251.953,-210.938
1641437243.360,117.676,26.367,-901.855,-281.250,-219.727
1641437243.364,146.973,22.461,-822.266,-172.852,-158.691
1641437243.368,150.879,20.020,-342.285,-189.941,-102.051
1641437243.355,117.188,20.020,-389.648,-350.098,-157.715
1641437243.359,95.703,26.367,-564.453,-437.988,-230.469
1641437243.363,115.234,26.367,-411.133,-366.211,-225.586
1641437243.367,132.812,18.555,-284.668,-321.777,-210.938
1641437243.371,103.516,22.461,-496.582,-409.180,-251.953
1641437243.375,83.008,16.113,-885.254,-469.238,-291.992
1641437243.379,91.797,17.578,-919.434,-395.996,-254.395
1641437243.382,103.027,29.297,-627.930,-288.086,-231.934
1641437243.386,96.191,25.391,-519.531,-263.184,-276.367
1641437243.390,67.871,29.785,-560.547,-330.566,-319.824
1641437243.394,67.383,27.832,-628.906,-354.980,-317.871
1641437243.398,91.797,20.020,-595.215,-233.398,-299.805
1641437243.400,91.797,18.555,-675.781,-224.121,-278.809
1641437243.404,62.988,21.973,-957.031,-346.191,-319.824
1641437243.408,62.012,22.461,-702.148,-331.055,-371.094
1641437243.412,97.656,19.043,-418.945,-270.020,-363.770
1641437243.416,115.234,13.672,-398.438,-250.000,-339.355
1641437243.420,66.895,12.695,-640.137,-354.980,-365.234
1641437243.424,50.781,16.602,-868.652,-455.078,-397.461
1641437243.427,105.957,23.438,-688.477,-359.863,-327.637
1641437243.431,129.883,30.273,-780.273,-264.160,-299.316
1641437243.435,66.406,23.438,-847.168,-332.031,-351.562
1641437243.439,47.852,22.461,-773.438,-418.945,-358.887
1641437243.443,85.938,20.508,-906.738,-377.441,-316.406
1641437243.446,105.469,17.578,-810.547,-310.547,-278.320
1641437243.450,83.984,19.043,-727.051,-336.914,-260.742
1641437243.454,57.129,25.391,-902.832,-448.242,-285.645
1641437243.458,75.195,23.438,-990.723,-528.809,-366.699
1641437243.462,96.191,23.438,-886.719,-416.016,-414.062
1641437243.466,98.145,23.926,-761.230,-345.703,-350.586
1641437243.470,63.477,18.555,-864.258,-479.980,-318.848
1641437243.473,47.363,28.320,-992.676,-462.891,-386.230
1641437243.477,76.172,30.762,-898.926,-308.594,-395.020
1641437243.481,92.773,28.809,-613.281,-258.789,-318.359
1641437243.485,55.664,21.484,-526.855,-330.078,-282.227
1641437243.489,27.832,23.438,-720.215,-279.297,-316.895
1641437243.489,46.387,27.344,-680.664,284.668,-357.910
1641437243.493,65.918,22.949,-455.566,390.137,-328.125
1641437243.497,33.203,24.902,-476.562,41.992,-309.570
1641437243.501,3.906,25.879,-694.824,-42.480,-333.008
1641437243.505,15.137,26.367,-724.609,-108.887,-303.223
1641437243.509,38.574,21.484,-571.289,-86.914,-228.027
1641437243.513,35.156,15.625,-578.125,-76.660,-198.730
1641437243.516,-14.160,20.996,-860.352,-204.102,-233.887
1641437243.520,-16.602,26.367,-897.461,-213.867,-263.672
1641437243.524,23.438,26.367,-533.203,-175.293,-251.953
1641437243.528,10.742,27.832,-460.938,-169.434,-257.324
1641437243.532,-37.598,23.438,-613.770,-192.383,-273.438
1641437243.535,-33.203,20.508,-692.871,-276.367,-273.438
1641437243.539,-5.371,27.344,-567.383,-178.223,-186.035
1641437243.543,-3.418,20.508,-481.445,-19.531,-182.129
1641437243.547,-37.598,17.090,-546.387,-109.375,-241.699
1641437243.551,-62.988,18.555,-631.836,-186.523,-250.488
1641437243.555,-42.969,14.648,-765.625,-20.020,-270.020
1641437243.559,-27.344,8.301,-852.051,80.078,-299.316
1641437243.562,-55.664,2.930,-972.656,37.598,-356.445
1641437243.566,-84.961,15.137,-836.426,-9.277,-353.516
1641437243.570,-67.383,18.555,-613.281,53.711,-320.312
1641437243.574,-34.668,14.160,-696.777,167.969,-295.410
1641437243.578,-31.738,20.020,-679.688,134.277,-276.855
1641437243.594,-58.594,22.461,-618.164,-60.547,-291.992
1641437243.598,-54.688,17.090,-753.418,-23.926,-293.945
1641437243.602,-45.898,11.719,-755.371,127.930,-285.156
1641437243.606,-40.527,16.602,-624.512,145.508,-244.629
1641437243.610,-63.477,18.066,-721.191,59.082,-258.789
1641437243.614,-76.172,18.066,-962.891,112.305,-304.688
1641437243.618,-36.133,17.578,-928.223,133.301,-291.992
1641437243.621,-11.230,17.090,-610.840,100.586,-223.145
1641437243.625,-33.203,20.020,-490.234,147.949,-175.781
1641437243.629,-48.340,19.043,-767.090,99.609,-250.977
1641437243.633,-27.832,17.578,-1000.000,127.441,-314.453
1641437243.637,-2.441,20.996,-750.977,194.824,-246.094
1641437243.625,-6.836,22.461,-450.684,153.809,-225.098
1641437243.629,-30.762,17.578,-701.660,76.660,-284.668
1641437243.633,-19.043,16.602,-813.477,92.773,-259.277
1641437243.637,29.785,20.508,-514.648,234.375,-229.492
1641437243.641,30.762,22.949,-322.266,245.605,-231.934
1641437243.645,-14.160,13.184,-556.641,111.816,-271.484
1641437243.649,-6.836,4.395,-721.191,149.414,-275.879
1641437243.652,44.922,14.648,-518.066,287.598,-198.242
1641437243.656,45.898,24.414,-310.059,305.176,-193.848
1641437243.660,-3.418,21.973,-563.965,153.809,-258.789
1641437243.664,-4.395,25.391,-939.453,106.445,-253.418
1641437243.668,34.668,29.785,-714.844,218.750,-172.363
1641437243.701,62.988,26.855,-531.738,316.895,-158.691
1641437243.705,36.133,26.855,-719.238,236.816,-185.547
1641437243.709,4.883,29.297,-753.906,137.207,-199.707
1641437243.713,24.902,25.391,-536.621,90.332,-198.730
1641437243.717,56.641,25.391,-393.555,50.781,-179.199
1641437243.721,43.457,21.973,-438.477,14.160,-189.453
1641437243.725,12.695,18.066,-594.727,14.648,-274.902
1641437243.728,21.973,23.438,-478.027,99.121,-281.250
1641437243.732,54.688,25.391,-316.895,209.961,-242.676
1641437243.736,56.152,24.414,-468.750,187.500,-270.996
1641437243.740,17.578,23.926,-452.637,-3.418,-249.023
1641437243.744,13.184,17.090,-305.176,2.930,-227.539
1641437243.730,45.898,16.602,-351.074,152.832,-249.512
1641437243.734,57.129,18.066,-256.836,236.816,-190.918
1641437243.738,28.320,18.555,-120.117,172.852,-142.090
1641437243.742,13.184,15.625,-333.984,35.156,-202.148
1641437243.746,39.551,8.789,-416.992,49.316,-235.352
1641437243.750,61.523,8.301,-251.953,141.602,-134.277
1641437243.754,44.434,13.672,-185.059,146.973,-118.164
1641437243.757,17.090,21.973,-194.824,117.188,-149.414
1641437243.761,35.645,19.043,-279.785,128.906,-152.832
1641437243.765,72.754,19.043,-261.230,210.449,-158.203
1641437243.769,62.012,23.438,-123.047,204.102,-162.109
1641437243.773,20.508,19.043,-114.746,63.965,-163.086
1641437243.775,23.438,15.625,-409.180,14.160,-178.223
1641437243.779,61.035,12.695,-549.805,94.238,-210.938
1641437243.783,60.059,15.137,-64.941,163.574,-160.156
1641437243.787,19.043,15.137,-28.320,93.262,-171.387
1641437243.791,23.926,13.672,-188.477,47.852,-187.500
1641437243.795,66.406,18.555,-192.871,104.004,-158.203
1641437243.799,75.195,19.531,-180.176,152.832,-171.387
1641437243.802,34.668,19.043,-58.105,115.234,-116.211
1641437243.806,6.348,20.020,-469.727,38.574,-138.184
1641437243.810,27.344,22.949,-565.918,144.531,-189.453
1641437243.814,62.500,27.344,53.223,251.465,-128.906
1641437243.818,57.129,24.902,98.633,223.145,-82.520
1641437243.819,22.949,16.602,-55.176,136.230,-98.633
1641437243.823,27.344,16.602,37.598,129.883,-91.309
1641437243.827,55.664,16.113,186.523,208.008,-69.824
1641437243.831,44.434,13.672,194.336,223.633,-66.406
1641437243.835,0.000,20.508,86.426,196.289,-18.066
1641437243.839,5.371,22.461,-37.598,173.340,-8.301
1641437243.843,48.340,23.926,20.508,216.797,-37.109
1641437243.846,51.270,20.996,53.711,304.688,-11.230
1641437243.850,15.625,13.184,-191.406,231.445,10.254
1641437243.854,-0.488,19.043,-163.086,124.023,8.301
1641437243.858,32.715,29.297,75.684,165.527,7.324
1641437243.862,56.152,30.762,168.457,225.586,89.355
1641437243.865,18.555,30.273,127.441,172.852,145.996
1641437243.869,3.418,19.043,91.797,88.867,88.379
1641437243.873,29.297,13.672,26.855,111.328,56.641
1641437243.877,54.688,17.578,115.234,146.973,47.852
1641437243.881,44.434,19.043,210.938,118.652,49.805
1641437243.885,2.930,19.531,27.344,-3.418,11.230
1641437243.889,10.742,17.090,-132.812,2.930,24.902
1641437243.892,53.223,20.020,-225.098,128.418,57.129
1641437243.896,48.828,24.414,-58.594,123.535,44.434
1641437243.900,12.695,20.508,102.539,-10.254,7.812
1641437243.904,22.949,17.578,-72.754,-89.844,-16.602
1641437243.908,62.988,13.184,-131.836,-38.086,-15.625
1641437243.911,60.547,9.766,-23.438,-36.133,-10.254
1641437243.915,29.297,14.648,14.160,-136.230,-2.441
1641437243.919,20.996,15.137,-280.273,-161.621,-40.039
1641437243.923,41.016,16.113,-318.848,-72.754,-63.965
1641437243.927,67.871,22.461,18.555,0.977,-47.852
1641437243.931,42.480,24.902,-70.312,-63.965,-81.055
1641437243.935,13.672,20.996,-495.117,-134.277,-114.258
1641437243.938,33.203,13.672,-611.328,-50.293,-88.379
1641437243.942,53.223,15.625,-166.992,62.500,-43.945
1641437243.946,49.316,18.066,16.113,90.332,-33.691
1641437243.950,24.414,12.207,-234.375,31.250,-47.852
1641437243.954,22.461,5.859,-387.207,15.625,-59.570
1641437243.955,55.664,12.695,-289.551,47.363,-68.848
1641437243.959,62.988,19.531,-177.734,83.496,-31.250
1641437243.963,23.926,19.531,-425.781,8.301,-48.340
1641437243.967,23.926,18.555,-516.113,-13.672,-99.609
1641437243.971,63.477,20.020,-291.992,139.160,-52.246
1641437243.975,73.730,21.973,-326.172,208.008,-13.672
1641437243.979,40.527,11.719,-713.867,78.125,-69.336
1641437243.982,26.855,12.695,-858.887,-29.785,-146.973
1641437243.986,46.875,21.484,-491.211,59.570,-141.602
1641437243.990,59.570,8.301,-308.105,172.363,-97.168
1641437243.994,46.387,5.859,-506.836,139.648,-152.832
1641437243.998,17.090,23.438,-559.082,69.824,-193.848
1641437244.016,23.926,27.344,-428.711,102.539,-205.566
1641437244.020,49.316,24.414,-397.949,228.027,-135.742
1641437244.024,41.992,30.273,-375.000,266.113,-85.449
1641437244.028,14.648,29.297,-391.602,178.711,-160.156
1641437244.032,13.672,24.414,-429.688,141.602,-178.223
1641437244.036,51.270,23.926,-593.750,186.035,-155.762
1641437244.040,55.664,21.973,-803.223,196.777,-138.672
1641437244.043,12.695,27.344,-656.738,81.055,-123.535
1641437244.047,-1.953,28.809,-471.191,26.855,-82.031
1641437244.051,31.250,26.367,-629.395,80.566,-64.453
1641437244.055,46.387,25.391,-608.398,141.113,-52.734
1641437244.059,14.160,14.160,-330.566,106.445,-35.645
1641437244.064,-9.277,10.742,-433.594,20.508,-66.895
1641437244.068,16.113,13.672,-537.598,104.492,-98.145
1641437244.072,54.688,17.090,-325.684,262.207,-55.664
1641437244.076,35.156,17.090,-82.031,235.352,-33.691
1641437244.080,-0.977,20.020,-223.145,61.035,-88.379
1641437244.084,11.719,23.926,-490.723,35.645,-123.047
1641437244.088,39.062,23.438,-421.387,138.184,-84.961
1641437244.091,35.645,22.949,-161.621,148.926,-49.316
1641437244.095,1.465,11.230,-305.176,49.316,-63.965
1641437244.099,13.672,8.301,-464.355,44.922,-59.570
1641437244.103,67.383,20.996,-205.078,189.941,-44.922
1641437244.107,83.496,27.344,-64.941,284.180,-53.711
1641437244.105,23.438,21.484,-234.375,160.645,-20.020
1641437244.109,-6.836,19.043,-429.199,1.953,-13.672
1641437244.113,29.297,22.461,-259.766,88.867,-29.297
1641437244.117,48.828,20.508,30.762,175.781,22.461
1641437244.121,18.066,23.926,-22.949,78.613,10.254
1641437244.125,-25.879,22.461,-197.754,-17.578,6.836
1641437244.129,-3.906,17.578,-83.008,87.891,37.109
1641437244.132,33.203,13.672,109.863,226.074,17.578
1641437244.136,6.348,16.113,173.340,157.715,34.668
1641437244.140,-33.203,17.578,-119.141,55.664,26.855
1641437244.144,-21.484,16.602,-227.539,48.828,-20.996
1641437244.148,17.578,24.414,303.223,100.586,20.508
1641437244.151,19.043,24.902,657.227,62.500,70.312
1641437244.155,-10.254,22.949,660.156,-17.578,48.340
1641437244.159,-11.230,25.391,707.031,-29.785,13.672
1641437244.163,18.066,25.879,792.480,50.781,26.367
1641437244.167,27.344,24.902,816.406,107.910,44.434
1641437244.171,-8.789,15.625,681.641,0.977,54.199
1641437244.175,-23.438,10.254,578.125,-60.547,26.855
1641437244.178,10.742,13.184,646.484,24.414,5.859
1641437244.182,33.203,12.207,858.398,105.957,60.547
1641437244.186,9.766,15.137,991.211,71.777,85.938
1641437244.190,-17.578,17.090,971.680,12.695,55.664
1641437244.194,8.301,18.066,838.867,63.965,38.574
1641437244.210,43.945,25.391,708.496,130.371,48.828
1641437244.214,20.996,24.902,866.211,143.066,91.797
1641437244.218,-15.625,15.625,964.844,87.402,112.793
1641437244.222,-7.812,23.438,755.859,66.895,33.691
1641437244.226,25.879,27.344,796.875,152.832,20.020
1641437244.230,30.762,21.484,985.840,191.895,62.500
1641437244.234,2.441,23.438,871.094,90.820,30.273
1641437244.237,-9.277,20.020,635.254,40.039,38.086
1641437244.241,17.578,20.508,342.285,114.746,11.230
1641437244.245,39.062,18.555,691.406,172.363,26.367
1641437244.249,0.000,17.578,-974.121,90.332,97.168
1641437244.253,-22.949,21.973,689.941,-0.977,-5.371
1641437244.240,6.348,18.066,701.660,64.941,-26.367
1641437244.244,31.738,10.742,987.793,130.859,34.668
1641437244.248,14.160,12.695,-987.793,59.082,51.270
1641437244.252,-15.625,17.578,901.855,-15.137,39.062
1641437244.256,0.977,21.484,839.844,25.391,-35.156
1641437244.260,38.086,24.414,914.062,119.629,-25.879
1641437244.264,32.715,18.066,952.637,133.789,20.996
1641437244.267,-5.859,13.672,813.965,41.504,-27.832
1641437244.271,-10.254,18.066,783.691,0.488,-39.551
1641437244.275,21.973,19.043,945.312,76.660,-17.090
1641437244.279,28.809,16.602,979.492,146.973,-28.320
1641437244.283,-4.395,17.578,495.117,53.223,-43.457
1641437244.286,-5.859,18.066,348.633,-4.883,-75.195
1641437244.290,28.809,16.113,727.051,45.898,-54.688
1641437244.294,68.848,20.020,724.121,93.262,-10.254
1641437244.298,47.363,24.902,595.215,36.133,27.344
1641437244.302,7.812,27.832,512.695,-35.645,30.273
1641437244.306,35.645,26.367,374.023,18.555,-4.883
1641437244.310,61.035,18.555,239.746,86.426,-39.551
1641437244.313,40.527,17.578,-23.926,37.109,-73.730
1641437244.317,11.230,18.066,30.273,-33.691,-75.195
1641437244.321,19.531,18.066,229.004,0.000,-62.988
1641437244.325,50.781,22.949,251.465,77.148,-34.668
1641437244.329,51.270,28.320,297.852,108.398,-16.602
1641437244.330,19.043,20.996,287.598,28.809,4.883
1641437244.334,22.461,14.648,117.188,5.859,-18.555
1641437244.338,60.059,20.508,6.836,104.492,-20.996
1641437244.342,66.895,25.879,185.547,150.879,10.742
1641437244.346,23.926,26.367,208.496,59.570,1.953
1641437244.350,1.465,29.297,-83.496,-7.324,-46.875
1641437244.354,41.016,27.832,-399.902,111.328,-59.570
1641437244.357,65.918,27.832,-185.547,227.051,23.438
1641437244.361,32.715,29.297,230.957,175.293,40.527
1641437244.365,2.441,21.973,92.773,85.449,-2.441
1641437244.369,23.926,23.438,-97.168,86.914,-13.672
1641437244.373,46.875,23.926,108.887,151.367,11.719
1641437244.390,31.250,17.090,252.441,133.789,32.715
1641437244.394,-1.953,16.602,66.406,0.488,-12.207
1641437244.398,1.465,22.461,-329.590,-57.129,-81.055
1641437244.402,35.645,27.344,-308.105,23.438,-98.145
1641437244.406,41.016,24.902,282.715,35.156,-73.730
1641437244.410,12.207,21.973,197.266,-98.633,-85.449
1641437244.414,5.859,20.020,-36.621,-162.598,-97.656
1641437244.417,16.113,16.602,299.316,-99.609,-85.938
1641437244.421,15.625,15.625,563.477,-77.637,-63.965
1641437244.425,-14.648,12.695,308.105,-223.145,-134.277
1641437244.429,-38.574,7.812,82.031,-356.934,-228.516
1641437244.433,-15.137,3.418,355.469,-270.020,-177.246
1641437244.435,11.719,4.883,460.449,-175.293,-121.094
1641437244.439,-6.348,13.672,173.828,-257.324,-184.570
1641437244.443,-42.480,13.672,37.598,-366.211,-222.656
1641437244.447,-27.832,13.672,269.531,-337.891,-185.547
1641437244.451,3.906,14.160,495.117,-243.164,-167.480
1641437244.455,-14.160,13.184,466.797,-242.188,-170.410
1641437244.459,-20.996,14.160,272.949,-303.711,-180.664
1641437244.462,-17.090,15.137,312.500,-289.062,-175.781
1641437244.466,5.859,19.531,549.805,-177.246,-146.484
1641437244.470,11.230,25.391,372.070,-87.402,-167.969
1641437244.474,-31.250,27.344,362.793,-157.715,-154.785
1641437244.478,-24.902,26.367,526.855,-175.781,-110.840
1641437244.480,3.906,19.531,477.051,-23.926,-86.426
1641437244.484,15.625,19.043,559.570,84.961,-93.750
1641437244.488,-12.207,24.414,606.445,37.598,-120.117
1641437244.492,-29.297,26.367,408.691,-30.762,-136.230
1641437244.496,-12.695,24.902,172.852,17.578,-157.227
1641437244.500,17.578,22.461,221.680,94.727,-145.020
1641437244.504,-3.418,29.297,359.863,86.914,-86.914
1641437244.507,-35.156,30.273,336.426,41.504,-61.523
1641437244.511,-31.250,21.484,111.816,58.594,-89.844
1641437244.515,4.883,21.973,66.895,133.789,-79.590
1641437244.519,5.371,18.555,405.762,157.715,-33.203
1641437244.523,-33.691,14.160,310.059,84.961,-14.160
1641437244.540,-32.715,19.043,143.555,76.172,-24.414
1641437244.544,11.230,26.367,361.328,182.617,-5.371
1641437244.548,25.391,29.297,583.008,239.746,2.441
1641437244.552,-9.277,24.414,473.633,144.043,-25.391
1641437244.556,-20.020,22.461,282.715,77.637,-51.270
1641437244.560,15.137,22.949,271.973,164.551,-84.961
1641437244.564,29.297,24.414,469.238,238.281,-34.668
1641437244.567,-3.418,19.531,412.598,187.012,-18.555
1641437244.571,-24.414,15.625,218.262,131.836,-34.180
1641437244.575,7.812,20.996,340.332,188.477,-53.223
1641437244.579,42.480,23.926,617.676,277.832,-26.367
1641437244.583,21.973,15.625,584.961,259.766,-16.113
1641437244.570,-16.602,13.672,101.562,185.059,-37.598
1641437244.574,-18.555,20.020,90.820,192.871,5.859
1641437244.578,10.742,20.508,491.211,272.461,69.824
1641437244.582,0.000,15.625,533.203,284.180,100.098
1641437244.586,-30.762,13.672,354.980,190.918,45.898
1641437244.590,-23.438,16.602,139.648,167.969,7.812
1641437244.594,8.301,16.113,255.371,292.969,41.504
1641437244.597,22.949,19.043,386.719,361.816,52.734
1641437244.601,-2.930,18.555,283.691,268.555,94.238
1641437244.605,-17.578,9.277,178.223,218.750,146.973
1641437244.609,9.277,13.672,220.215,298.828,155.762
1641437244.613,37.109,16.113,153.320,377.441,134.766
1641437244.615,19.043,14.648,-88.867,332.520,110.352
1641437244.619,-1.465,16.602,17.578,231.445,105.469
1641437244.623,7.324,14.648,66.895,290.039,108.887
1641437244.627,32.227,14.160,146.484,384.766,168.945
1641437244.631,31.250,20.508,209.961,330.078,175.293
1641437244.635,-2.930,17.578,18.066,230.957,155.762
1641437244.639,1.465,10.254,-143.066,209.961,144.043
1641437244.642,37.109,10.742,-271.484,316.895,90.332
1641437244.646,48.340,12.207,-65.430,358.887,156.250
1641437244.650,18.555,12.695,188.477,200.195,200.195
1641437244.654,3.906,13.672,21.484,129.395,166.504
1641437244.658,40.527,18.066,-51.758,258.301,178.223
1641437244.661,64.941,26.367,138.672,338.379,199.707
1641437244.665,33.691,26.855,293.457,231.934,196.289
1641437244.669,12.695,19.531,32.227,137.695,136.230
1641437244.673,44.922,18.555,-46.875,192.383,125.000
1641437244.677,70.801,20.996,364.746,247.559,180.664
1641437244.681,43.945,23.438,375.977,179.688,173.340
1641437244.685,15.137,20.996,-14.648,78.125,111.328
1641437244.688,43.457,20.020,-125.488,107.422,82.031
1641437244.692,81.543,24.902,373.535,212.402,152.832
1641437244.696,62.500,22.949,688.477,216.309,219.238
1641437244.700,23.438,18.555,518.066,93.750,210.449
1641437244.704,33.691,17.578,452.148,53.711,193.848
1641437244.705,74.219,24.414,608.398,146.973,206.055
1641437244.709,73.242,22.461,737.793,177.246,243.652
1641437244.713,34.668,20.508,484.375,73.730,221.191
1641437244.717,31.738,20.996,302.246,30.273,204.590
1641437244.721,69.336,20.996,497.070,107.422,228.027
1641437244.725,90.332,21.484,539.551,151.855,269.531
1641437244.729,48.828,19.043,214.844,35.645,277.832
1641437244.732,20.996,13.184,5.371,-86.914,236.328
1641437244.736,54.199,10.254,365.234,-39.551,251.465
1641437244.740,80.566,9.766,504.395,27.832,226.562
1641437244.744,57.617,11.230,405.273,-31.738,232.910
1641437244.748,29.785,14.648,367.188,-160.156,269.043
1641437244.766,43.945,23.926,289.062,-171.387,248.047
1641437244.770,75.684,21.973,233.887,-84.961,234.863
1641437244.774,69.336,15.625,239.746,-90.820,235.840
1641437244.778,27.344,16.113,158.203,-212.891,206.055
1641437244.782,24.414,16.113,54.199,-256.348,193.848
1641437244.786,54.688,16.602,-104.004,-153.809,174.805
1641437244.790,62.012,18.555,-228.516,-87.891,146.973
1641437244.793,30.273,17.090,-117.188,-166.504,176.270
1641437244.797,18.555,12.695,-63.477,-168.945,173.340
1641437244.801,59.570,12.207,-232.422,-49.805,194.824
1641437244.805,83.984,14.160,-245.117,24.414,224.121
1641437244.809,56.152,14.648,26.855,-2.441,223.145
1641437244.811,33.691,15.137,-34.180,-50.293,193.848
1641437244.815,55.664,14.160,-139.648,22.949,181.152
1641437244.819,88.379,14.648,72.266,131.348,267.578
1641437244.823,73.242,15.625,208.496,117.188,271.484
1641437244.827,33.203,16.113,20.996,5.371,205.078
1641437244.831,42.480,14.648,-132.812,18.066,217.773
1641437244.835,73.242,16.113,-17.578,156.738,231.445
1641437244.838,71.777,15.625,240.234,176.758,259.766
1641437244.842,35.645,17.090,133.301,50.781,291.016
1641437244.846,30.762,19.043,-339.844,25.879,239.258
1641437244.850,65.918,15.625,-253.418,93.262,205.566
1641437244.854,83.984,21.484,364.258,139.160,266.602
1641437244.855,54.688,24.414,308.594,63.477,300.293
1641437244.859,40.527,20.020,23.438,-26.367,270.508
1641437244.863,66.406,21.973,105.957,25.879,263.184
1641437244.867,79.590,23.438,354.980,105.469,325.684
1641437244.871,46.875,21.973,308.594,46.875,338.379
1641437244.875,19.043,19.531,-2.441,-64.941,291.992
1641437244.879,40.527,22.949,-28.320,-31.250,276.855
1641437244.882,66.895,21.973,252.930,84.473,325.684
1641437244.886,57.617,15.625,285.645,79.102,350.098
1641437244.890,19.043,18.555,146.484,-15.625,322.266
1641437244.894,24.414,18.555,194.336,-8.301,278.809
1641437244.898,55.176,19.043,289.551,118.164,277.832
1641437244.900,49.316,19.043,132.812,137.695,272.949
1641437244.904,18.555,13.672,-158.203,8.789,230.469
1641437244.908,16.113,11.230,44.434,-7.812,275.391
1641437244.912,44.434,12.695,187.012,111.328,291.016
1641437244.916,65.430,16.113,208.496,175.781,283.203
1641437244.920,43.945,17.090,102.051,95.703,323.242
1641437244.924,20.996,5.859,-118.164,29.297,335.449
1641437244.927,43.457,6.836,-76.660,112.305,321.777
1641437244.931,67.383,13.672,-192.383,207.031,304.199
1641437244.935,42.480,15.625,-159.180,161.621,298.828
1641437244.939,11.230,19.531,-31.250,53.711,275.879
1641437244.943,26.855,14.160,-258.789,76.172,234.375
1641437244.946,53.711,15.137,-92.285,176.758,248.047
1641437244.950,47.852,14.160,20.020,150.391,248.047
1641437244.954,14.648,14.648,-164.551,20.996,206.055
1641437244.958,16.602,17.090,-371.094,-3.906,191.895
1641437244.962,47.363,16.113,-354.980,99.609,235.840
1641437244.966,45.898,13.184,-181.641,148.926,225.098
1641437244.970,13.184,8.301,-240.723,47.363,189.453
1641437244.973,6.836,3.418,-381.348,-1.953,187.988
1641437244.977,33.203,5.859,-499.023,97.168,136.719
1641437244.981,48.340,15.137,-21.973,186.523,201.660
1641437244.985,6.348,15.625,186.035,113.281,233.887
1641437244.989,-26.855,14.648,-125.000,22.461,183.105
1641437244.991,-1.465,19.531,-163.574,95.703,150.391
1641437244.995,24.414,20.508,61.523,197.266,140.137
1641437244.999,3.906,15.137,99.609,141.602,178.711
1641437245.003,-21.484,14.648,-129.395,31.250,164.062
1641437245.007,-5.859,18.555,-307.129,54.199,116.211
1641437245.011,20.996,18.555,-291.016,152.832,125.000
1641437245.015,17.578,18.066,-283.203,153.320,128.418
1641437245.018,-22.949,19.043,-718.262,52.246,59.082
1641437245.022,-21.484,24.902,-912.109,42.480,43.457
1641437245.026,17.578,29.297,-501.465,165.527,68.848
1641437245.030,13.672,25.391,-467.285,214.844,67.383
1641437245.034,-11.719,36.133,-741.699,113.770,65.430
1641437245.035,-11.719,39.551,-888.672,74.219,74.219
1641437245.039,-0.977,33.203,-963.379,146.484,87.402
1641437245.043,3.418,40.527,-957.520,211.426,85.938
1641437245.047,-28.809,49.805,-967.773,156.250,58.105
1641437245.051,-61.035,46.387,-970.703,38.574,41.992
1641437245.055,-40.039,41.504,-969.238,30.273,77.637
1641437245.059,-13.184,48.828,-970.215,118.164,96.191
1641437245.062,-39.062,54.199,-969.727,101.074,59.082
1641437245.066,-86.914,55.664,-969.727,-48.340,15.137
1641437245.070,-80.566,55.176,-969.727,-47.852,-6.836
1641437245.074,-48.340,48.340,-969.727,80.078,6.348
1641437245.078,-58.594,41.504,-969.727,82.520,34.180
1641437245.080,-104.004,41.016,-969.727,-36.133,40.527
1641437245.084,-110.840,46.875,-969.727,-52.734,28.320
1641437245.088,-68.359,53.711,-969.238,54.688,40.039
1641437245.092,-59.082,57.129,-969.727,110.352,72.754
1641437245.096,-96.191,54.688,-969.727,7.812,44.922
1641437245.100,-109.375,44.922,-969.727,-71.289,10.254
1641437245.104,-98.145,40.527,-969.727,-5.371,36.133
1641437245.107,-66.406,48.340,-969.727,80.078,46.387
1641437245.111,-65.918,44.434,-969.727,44.434,82.520
1641437245.115,-88.379,36.133,-969.727,-85.449,51.758
1641437245.119,-71.289,29.785,-969.727,-76.172,10.254
1641437245.123,-43.945,20.996,-969.727,41.504,16.113
1641437245.126,-40.527,15.625,-967.773,23.438,28.809
1641437245.130,-62.012,19.043,-963.867,-115.723,5.859
1641437245.134,-54.199,22.949,-981.445,-136.719,-2.930
1641437245.138,-10.254,29.297,-926.270,-27.832,32.715
1641437245.142,-3.418,27.344,-876.465,2.441,70.801
1641437245.146,-39.551,13.184,-948.730,-114.258,31.738
1641437245.150,-33.691,8.301,-993.164,-152.832,-30.762
1641437245.153,14.160,11.230,-811.523,-50.293,57.617
1641437245.157,33.691,11.719,-549.805,32.715,89.844
1641437245.161,10.742,13.672,-685.547,-26.367,27.832
1641437245.165,-0.488,12.207,-739.746,-90.820,14.648
1641437245.169,43.945,9.766,-501.953,-17.090,87.402
1641437245.185,78.125,11.719,-232.910,74.219,145.996
1641437245.189,44.922,3.418,-222.656,39.062,109.375
1641437245.193,12.207,-3.418,-325.195,-49.316,60.059
1641437245.197,29.297,0.977,-191.895,-35.156,72.266
1641437245.201,62.012,6.836,90.332,52.246,149.902
1641437245.205,54.199,4.883,-37.598,38.086,134.766
1641437245.209,23.438,2.930,-230.469,-85.449,128.418
1641437245.212,35.156,9.766,67.383,-98.145,143.066
1641437245.216,83.008,11.719,311.523,17.578,128.906
1641437245.220,93.262,4.883,301.270,62.500,138.184
1641437245.224,52.246,2.441,333.008,-43.945,148.926
1641437245.228,42.969,1.465,404.297,-101.562,187.988
1641437245.230,81.543,-4.395,449.219,-12.207,170.410
1641437245.234,101.074,-6.836,561.035,57.129,159.668
1641437245.238,73.242,-1.953,685.547,-11.230,210.449
1641437245.242,56.152,2.441,508.789,-97.656,132.324
1641437245.246,81.543,5.859,323.730,-31.738,83.496
1641437245.250,110.840,10.742,438.477,93.750,110.352
1641437245.254,92.285,11.230,581.543,78.613,111.816
1641437245.257,55.664,8.789,676.758,-18.066,147.949
1641437245.261,65.430,6.348,480.957,-9.277,122.070
1641437245.265,92.773,1.953,398.438,85.938,106.445
1641437245.269,82.031,1.465,812.988,99.121,145.996
1641437245.273,40.527,-1.465,840.820,-3.418,157.227
1641437245.275,39.062,-7.812,615.234,-33.203,149.902
1641437245.279,79.590,-8.301,688.965,65.918,167.969
1641437245.283,83.984,-4.883,914.551,116.699,186.523
1641437245.287,48.828,-4.883,848.633,26.855,150.391
1641437245.291,40.039,0.000,613.770,-26.855,127.930
1641437245.295,67.871,2.930,514.648,52.734,127.441
1641437245.299,93.262,5.371,623.535,153.809,159.668
1641437245.302,74.219,5.371,719.727,125.488,166.992
1641437245.306,51.270,2.441,307.129,38.574,113.770
1641437245.310,70.312,3.906,200.684,77.637,119.141
1641437245.314,98.633,4.883,771.973,179.199,204.590
1641437245.318,79.102,-3.418,824.707,155.762,231.445
1641437245.320,42.480,-5.859,580.078,48.340,182.617
1641437245.324,56.152,1.953,640.625,52.246,170.898
1641437245.328,82.031,6.348,833.008,147.949,196.777
1641437245.332,78.613,8.301,835.938,164.551,204.590
1641437245.336,41.016,11.230,711.914,62.012,164.551
1641437245.340,23.926,11.719,528.320,32.227,177.246
1641437245.344,58.594,8.301,606.934,123.535,208.984
1641437245.347,75.195,10.254,675.293,180.176,194.336
1641437245.351,33.691,6.836,416.992,81.543,179.199
1641437245.355,11.719,4.395,519.043,2.441,200.195
1641437245.359,39.062,6.836,681.152,80.566,214.355
1641437245.363,56.641,2.930,659.668,164.062,205.078
1641437245.380,33.203,1.953,673.828,111.328,200.195
1641437245.384,2.441,12.207,736.328,7.324,206.543
1641437245.388,24.902,13.672,718.262,48.828,166.016
1641437245.392,59.570,9.766,831.543,189.453,156.250
1641437245.396,42.480,13.672,943.359,191.895,200.195
1641437245.400,8.301,13.672,763.672,80.078,187.500
1641437245.404,18.066,5.859,595.703,55.176,147.461
1641437245.407,57.617,7.324,470.703,136.230,185.059
1641437245.411,65.918,16.602,617.676,170.410,212.402
1641437245.415,27.832,12.695,859.375,62.500,190.430
1641437245.419,23.926,13.184,686.035,12.695,165.527
1641437245.423,60.547,19.043,645.020,87.402,170.898
1641437245.411,70.312,21.973,768.555,126.465,184.570
1641437245.415,46.387,24.414,783.203,43.457,178.223
1641437245.419,28.320,20.996,574.707,-33.203,142.578
1641437245.423,53.711,16.113,458.008,10.254,160.156
1641437245.427,80.566,16.113,693.848,94.238,206.543
1641437245.431,55.176,14.160,604.004,59.082,165.527
1641437245.435,29.297,10.742,147.461,-43.945,131.836
1641437245.438,38.574,7.812,97.168,-25.879,166.016
1641437245.442,59.082,5.371,448.730,81.543,204.102
1641437245.446,55.664,6.836,551.270,90.820,203.613
1641437245.450,23.438,5.371,150.879,-18.555,156.738
1641437245.454,20.020,8.301,-139.648,-45.898,101.074
1641437245.470,58.594,12.207,244.141,64.941,176.270
1641437245.474,60.547,10.742,413.574,116.699,186.523
1641437245.478,22.949,8.789,157.227,9.766,112.793
1641437245.482,15.625,7.324,-6.348,-52.734,132.324
1641437245.486,46.387,8.789,133.301,24.414,151.855
1641437245.490,54.688,14.648,173.828,81.543,148.926
1641437245.494,23.438,9.277,-148.438,8.301,126.953
1641437245.497,9.766,1.465,-384.277,-68.359,100.098
1641437245.501,38.086,14.160,8.789,-19.531,162.598
1641437245.505,67.383,21.484,244.629,65.918,176.758
1641437245.509,56.641,23.926,205.566,26.367,129.395
1641437245.513,30.273,24.414,119.141,-90.332,63.965
1641437245.515,39.062,21.484,142.090,-77.148,82.031
1641437245.519,72.266,18.555,221.680,31.738,136.230
1641437245.523,64.941,15.137,250.977,15.625,159.668
1641437245.527,20.508,21.484,173.340,-128.418,115.723
1641437245.531,19.043,25.879,12.695,-166.504,68.359
1641437245.535,60.059,18.555,-54.199,-78.125,84.473
1641437245.539,70.312,10.742,20.020,-28.809,87.402
1641437245.542,26.367,12.207,83.984,-126.953,45.410
1641437245.546,13.184,14.160,46.875,-189.941,1.465
1641437245.550,45.410,17.090,-114.258,-100.098,-7.324
1641437245.554,59.570,20.020,-301.758,-13.672,-19.531
1641437245.558,36.133,20.020,-38.574,-61.523,17.090
1641437245.560,12.207,17.090,46.387,-151.367,18.555
1641437245.564,30.762,18.066,-110.352,-102.539,-21.484
1641437245.568,56.641,16.113,68.359,16.602,31.250
1641437245.572,32.227,11.230,230.469,22.461,46.387
1641437245.576,3.906,14.648,132.324,-43.457,30.762
1641437245.580,20.996,12.207,-60.547,-20.996,21.484
1641437245.584,53.223,10.742,-22.949,89.844,4.883
1641437245.587,52.246,19.531,232.910,114.258,23.438
1641437245.591,15.137,20.020,161.621,-5.859,7.324
1641437245.595,10.742,19.531,-354.004,-56.152,-62.500
1641437245.599,43.945,23.926,-291.504,32.227,-44.434
1641437245.603,53.711,25.391,314.941,97.656,-4.395
1641437245.605,17.090,24.414,247.070,12.207,-23.926
1641437245.609,-1.953,22.461,26.855,-63.477,-18.066
1641437245.613,39.551,22.949,176.758,16.602,14.648
1641437245.617,62.988,25.879,405.273,110.840,66.895
1641437245.621,28.320,20.020,327.637,58.594,72.266
1641437245.625,-3.906,18.066,8.301,-49.316,10.742
1641437245.629,9.277,24.414,-25.391,-19.043,13.184
1641437245.632,34.180,27.344,291.016,93.750,51.758
1641437245.636,23.438,24.414,229.004,103.516,44.434
1641437245.640,-13.672,21.973,-128.906,3.418,52.734
1641437245.644,-13.672,19.531,65.430,-12.695,42.480
1641437245.648,23.438,21.973,249.023,97.656,86.426
1641437245.650,28.809,22.461,220.215,153.809,132.324
1641437245.654,-8.789,20.020,114.258,70.312,92.285
1641437245.658,-17.090,20.508,84.473,42.480,95.703
1641437245.662,13.184,15.625,190.918,128.418,185.547
1641437245.666,22.461,8.789,246.582,187.500,210.938
1641437245.670,-8.789,10.254,62.012,130.371,146.484
1641437245.674,-22.461,14.648,-78.125,54.688,131.836
1641437245.677,5.859,14.648,72.266,121.582,169.434
1641437245.681,27.832,20.508,-23.438,224.609,193.848
1641437245.685,16.113,23.438,12.695,196.289,204.102
1641437245.689,-15.137,18.066,149.414,110.352,196.289
1641437245.693,-6.348,15.137,12.695,146.484,162.109
1641437245.718,31.250,8.789,171.875,280.762,195.312
1641437245.722,24.902,11.719,365.234,295.410,228.516
1641437245.726,-13.184,17.578,220.703,172.852,191.895
1641437245.730,-6.836,9.277,-29.785,142.090,167.969
1641437245.734,39.062,7.324,20.020,234.375,190.430
1641437245.738,53.223,17.090,173.340,266.602,230.957
1641437245.742,19.043,25.391,69.824,152.832,196.777
1641437245.745,8.301,26.367,-66.406,96.191,162.598
1641437245.749,40.527,21.484,-5.859,172.852,169.434
1641437245.753,60.547,22.461,303.223,227.539,243.652
1641437245.757,30.273,20.996,375.488,161.133,258.789
1641437245.761,2.441,15.625,-104.004,81.055,197.754
1641437245.740,26.367,17.090,-315.918,124.512,217.285
1641437245.744,51.758,21.484,152.832,215.820,252.930
1641437245.748,26.855,13.672,288.086,185.059,251.465
1641437245.752,-3.418,10.254,-45.898,67.383,202.637
1641437245.756,7.812,16.113,-259.766,67.871,187.012
1641437245.760,35.156,13.672,-91.309,176.270,219.238
1641437245.764,36.133,15.625,-41.992,197.754,216.797
1641437245.767,3.906,21.484,-211.426,90.332,218.750
1641437245.771,4.883,20.996,-260.254,68.359,210.938
1641437245.775,46.875,24.414,-112.305,163.574,190.430
1641437245.779,56.152,29.785,3.418,207.031,190.430
1641437245.783,13.672,24.902,-378.906,120.117,114.258
1641437245.785,-4.883,23.926,-771.484,66.895,51.758
1641437245.789,23.926,20.996,-683.105,157.227,82.520
1641437245.793,53.223,17.578,-243.652,249.512,134.277
1641437245.797,25.391,25.391,171.875,206.543,155.762
1641437245.801,-9.277,27.344,179.688,126.953,145.996
1641437245.805,15.137,21.973,41.504,166.016,153.809
1641437245.809,47.852,20.508,-20.996,264.160,212.891
1641437245.812,28.320,20.020,-144.043,243.164,201.172
1641437245.816,-7.324,20.996,-79.102,128.418,117.188
1641437245.820,2.441,23.438,71.289,123.535,151.855
1641437245.824,39.551,21.973,7.324,222.168,171.387
1641437245.828,39.062,20.508,58.594,220.703,193.848
1641437245.830,-1.953,16.602,154.785,98.145,216.309
1641437245.834,-8.789,10.742,58.105,53.711,174.316
1641437245.838,24.414,12.207,9.766,121.582,157.227
1641437245.842,41.992,15.625,175.293,181.641,181.152
1641437245.846,12.695,16.602,149.414,82.520,196.289
1641437245.850,-6.836,19.043,-89.355,-20.996,204.102
1641437245.854,24.902,19.531,-414.551,35.645,158.203
1641437245.857,52.734,16.602,-240.234,118.164,149.902
1641437245.861,28.320,15.137,161.621,66.406,154.785
1641437245.865,-1.953,15.625,-33.691,-41.992,105.957
1641437245.869,22.461,17.578,-205.078,-4.883,110.352
1641437245.873,60.547,14.648,48.340,122.559,167.969
1641437245.876,45.410,13.672,291.992,124.023,185.059
1641437245.880,5.859,13.184,1.953,9.277,113.281
1641437245.884,13.184,14.648,-242.676,-20.508,80.078
1641437245.888,50.781,22.461,61.523,70.801,113.770
1641437245.892,52.246,20.996,285.156,114.746,108.398
1641437245.896,13.672,16.602,-108.398,1.465,41.016
1641437245.900,12.695,16.602,-378.418,-59.082,20.996
1641437245.903,49.805,20.020,-17.578,5.371,41.016
1641437245.907,68.359,19.043,208.496,51.758,81.055
1641437245.911,37.598,15.625,-52.246,-33.691,78.613
1641437245.915,15.137,20.020,-304.688,-129.395,58.594
1641437245.919,40.039,22.461,-202.637,-67.871,47.852
1641437245.935,69.824,11.719,-74.707,41.992,47.363
1641437245.939,64.941,6.348,-171.387,33.203,76.172
1641437245.943,49.805,19.531,-372.559,-47.363,54.199
1641437245.947,45.410,31.738,-325.195,-51.270,46.875
1641437245.951,62.012,30.762,-217.285,45.898,59.082
1641437245.955,65.430,25.391,-520.508,69.824,66.895
1641437245.959,21.973,25.879,-908.203,-50.781,30.273
1641437245.962,26.855,24.414,-710.449,-72.266,41.992
1641437245.966,77.148,24.902,-555.176,41.016,60.547
1641437245.970,86.426,28.320,-532.715,89.844,52.734
1641437245.974,44.434,23.438,-469.238,-17.090,81.543
1641437245.978,26.855,20.996,-545.898,-81.543,52.246
1641437245.980,61.035,22.949,-585.938,0.000,74.219
1641437245.984,83.008,23.926,-456.543,75.684,94.238
1641437245.988,49.316,22.949,-349.121,11.230,43.945
1641437245.992,19.531,16.113,-456.055,-77.637,16.113
1641437245.996,43.945,12.695,-678.223,-21.484,-15.137
1641437246.000,75.195,17.090,-609.863,88.867,-7.812
1641437246.004,57.617,8.789,-412.109,80.566,20.020
1641437246.007,28.320,1.953,-353.516,-20.508,-10.742
1641437246.011,33.691,12.207,-476.074,-13.184,-19.531
1641437246.015,61.523,17.090,-455.566,100.586,20.996
1641437246.019,62.012,14.648,-71.289,125.977,43.457
1641437246.023,17.090,9.766,-5.859,19.043,76.172
1641437246.055,10.742,10.254,-166.992,-16.113,51.270
1641437246.059,40.039,14.160,-51.270,84.961,53.711
1641437246.063,48.340,13.184,184.082,144.043,76.172
1641437246.067,17.090,12.207,99.121,62.012,53.223
1641437246.071,1.465,8.789,-41.504,2.930,72.266
1641437246.075,31.738,2.930,-55.176,81.055,84.473
1641437246.079,58.594,6.836,77.148,170.898,115.234
1641437246.082,37.598,18.555,164.551,136.230,133.789
1641437246.086,13.184,17.578,-180.176,53.711,105.957
1641437246.090,31.738,19.531,-189.941,79.590,115.723
1641437246.094,68.359,24.902,326.172,164.062,124.512
1641437246.098,61.035,18.066,304.199,134.766,68.848
1641437246.070,28.809,16.602,50.781,13.184,52.246
1641437246.074,32.227,19.531,58.105,-8.789,64.941
1641437246.078,62.012,24.414,228.027,81.055,125.000
1641437246.082,61.523,24.902,264.160,100.098,208.008
1641437246.086,15.625,15.625,67.871,-21.973,152.832
1641437246.090,11.719,15.625,-162.598,-72.266,113.770
1641437246.094,50.293,21.973,-95.703,16.602,130.859
1641437246.097,58.105,24.414,11.230,81.055,114.746
1641437246.101,22.461,27.832,-64.941,3.418,115.234
1641437246.105,7.812,24.902,-169.922,-74.707,98.633
1641437246.109,31.250,21.484,-218.750,-10.254,69.824
1641437246.113,58.105,24.414,-98.633,74.707,137.695
1641437246.115,35.645,23.926,-96.680,17.090,186.035
1641437246.119,-2.441,20.996,-192.383,-94.727,120.605
1641437246.123,20.020,12.695,-182.129,-62.988,95.703
1641437246.127,47.852,2.930,-339.355,51.270,74.707
1641437246.131,30.762,14.160,-518.555,47.852,89.355
1641437246.135,-1.953,26.855,-439.941,-51.270,111.816
1641437246.139,-2.441,22.461,-484.375,-67.871,52.246
1641437246.142,27.832,15.625,-567.871,29.297,13.672
1641437246.146,28.320,8.301,-396.484,79.590,0.488
1641437246.150,-13.184,7.812,-109.375,-5.371,20.020
1641437246.154,-18.066,11.719,-202.637,-48.340,43.945
1641437246.158,16.602,16.113,-224.121,30.273,42.969
1641437246.161,33.203,18.555,-29.785,114.746,66.406
1641437246.165,8.301,18.066,5.859,62.012,70.312
1641437246.169,-9.766,12.207,-283.203,-4.883,0.000
1641437246.173,19.043,15.137,-347.168,65.918,-10.742
1641437246.177,42.480,21.973,2.441,148.438,40.039
1641437246.181,21.484,18.555,71.777,108.887,34.668
1641437246.185,0.000,19.531,-205.566,19.043,1.953
1641437246.188,20.996,18.555,-400.391,31.250,-4.395
1641437246.192,62.012,21.973,-23.438,133.301,50.293
1641437246.196,52.734,22.461,296.875,137.695,80.078
1641437246.200,3.418,13.672,62.988,13.672,27.832
1641437246.204,2.441,11.230,-216.797,-13.672,-17.578
1641437246.205,39.551,16.113,-129.395,83.984,18.066
1641437246.209,46.387,15.625,77.637,124.023,65.430
1641437246.213,10.254,6.836,-29.785,8.789,36.621
1641437246.217,6.836,3.906,-270.996,-59.570,-0.488
1641437246.221,34.180,12.695,-146.484,22.461,36.621
1641437246.225,50.293,22.949,-18.555,100.586,81.055
1641437246.229,26.855,28.809,-322.266,38.574,65.918
1641437246.232,-0.977,26.855,-546.875,-65.918,-5.371
1641437246.236,19.531,22.461,-220.215,-15.137,24.414
1641437246.240,47.363,18.555,-4.395,92.285,82.520
1641437246.244,32.227,20.508,-45.410,69.336,95.215
1641437246.248,-1.465,20.996,-116.211,-37.109,47.363
1641437246.265,12.207,20.996,-104.980,-36.621,12.695
1641437246.269,51.270,10.742,-86.426,68.359,-7.812
1641437246.273,49.805,7.324,-67.383,99.121,12.695
1641437246.277,13.672,20.508,-27.344,-1.953,52.246
1641437246.281,20.996,30.273,-100.098,-40.039,43.457
1641437246.285,59.082,25.391,-265.625,51.758,68.848
1641437246.289,60.547,17.578,-271.484,122.070,97.656
1641437246.292,23.438,20.020,-121.094,34.180,75.195
1641437246.296,7.812,17.578,-79.102,-47.363,48.340
1641437246.300,36.133,15.137,-223.633,30.762,38.574
1641437246.304,55.176,13.672,-263.184,106.445,9.766
1641437246.308,26.367,9.766,36.621,41.504,64.453
1641437246.310,1.465,7.812,-5.371,-53.223,72.754
1641437246.314,27.344,18.555,-142.578,-17.578,28.809
1641437246.318,62.012,23.926,29.297,82.031,66.406
1641437246.322,48.828,18.555,128.906,65.918,43.945
1641437246.326,11.719,17.578,-41.016,-37.109,-18.066
1641437246.330,17.578,18.066,-187.988,-26.367,7.324
1641437246.334,50.293,20.508,-108.398,80.566,36.621
1641437246.337,51.270,20.508,56.152,102.051,39.551
1641437246.341,14.160,18.555,-1.465,4.395,43.457
1641437246.345,3.418,20.020,-454.102,-41.016,18.555
1641437246.349,35.156,16.602,-395.996,31.738,44.434
1641437246.353,42.480,18.066,184.082,79.102,123.535
1641437246.355,11.230,20.996,136.230,-4.883,132.812
1641437246.359,-6.348,18.066,-95.215,-76.172,106.445
1641437246.363,19.043,23.438,-14.648,-11.230,92.285
1641437246.367,41.992,18.555,171.875,87.891,75.195
1641437246.371,9.277,9.766,86.426,54.199,54.688
1641437246.375,-20.996,16.602,-210.938,-61.523,20.508
1641437246.379,0.488,20.996,-286.133,-42.969,-29.297
1641437246.382,32.715,10.742,15.137,72.266,-15.625
1641437246.386,22.949,7.324,-2.930,66.406,12.695
1641437246.390,-3.418,14.648,-347.656,-44.922,-15.625
1641437246.394,7.812,20.020,-186.523,-52.246,-33.203
1641437246.398,44.922,19.531,-12.695,62.988,0.000
1641437246.401,48.828,19.043,-29.297,110.840,3.906
1641437246.405,13.184,23.438,-125.977,15.137,-7.324
1641437246.409,6.348,26.855,-124.023,-34.180,24.414
1641437246.413,36.133,23.438,-47.363,58.105,23.438
1641437246.417,54.199,21.484,67.383,146.484,41.016
1641437246.421,25.391,17.578,-72.754,83.496,-31.250
1641437246.425,4.883,9.277,-225.098,-14.160,-30.762
1641437246.428,30.273,15.625,-76.660,28.320,-3.906
1641437246.432,52.246,18.066,-210.449,114.746,-39.551
1641437246.436,34.668,13.672,-158.691,97.168,21.484
1641437246.440,4.395,19.043,44.434,13.672,70.312
1641437246.444,16.602,21.484,-73.730,27.832,67.383
1641437246.446,47.363,20.508,-15.625,134.766,56.152
1641437246.450,41.016,20.020,146.484,142.090,84.961
1641437246.454,-3.418,14.648,-17.090,33.691,44.434
1641437246.458,-10.742,12.695,-215.332,15.625,16.113
1641437246.462,20.508,10.254,-55.176,107.422,58.105
1641437246.466,28.320,6.348,112.793,166.504,114.746
1641437246.470,-0.977,12.207,14.160,70.312,158.691
1641437246.473,-15.625,13.672,-257.324,-15.625,64.453
1641437246.477,18.066,19.043,-524.902,55.664,-22.949
1641437246.481,43.457,23.926,-157.227,137.207,37.598
1641437246.485,13.184,18.066,112.305,73.242,51.270
1641437246.489,-5.859,18.066,-189.453,-33.691,-44.434
1641437246.490,12.207,24.414,-248.535,-12.695,-16.602
1641437246.494,30.273,28.320,-0.488,70.312,50.781
1641437246.498,25.391,26.855,14.648,41.504,48.340
1641437246.502,0.977,11.230,-333.008,-67.383,9.766
1641437246.506,11.719,6.836,-470.215,-48.828,-6.836
1641437246.510,55.176,21.484,-349.609,79.590,46.387
1641437246.514,55.176,22.949,-221.680,119.141,88.867
1641437246.517,15.625,17.090,-471.680,28.320,58.594
1641437246.521,14.160,19.043,-551.270,-11.230,63.965
1641437246.525,53.223,20.508,-35.645,66.895,92.773
1641437246.529,68.848,18.066,144.043,138.672,100.098
1641437246.533,31.250,17.578,-3.906,59.570,101.074
1641437246.550,19.531,17.578,-65.430,-19.043,67.383
1641437246.554,46.387,14.648,51.270,43.945,25.391
1641437246.558,62.500,13.184,151.855,115.234,29.297
1641437246.562,34.180,15.137,114.258,52.246,40.527
1641437246.566,2.930,16.113,8.789,-65.918,35.156
1641437246.570,19.531,15.137,-168.945,-67.383,35.156
1641437246.574,45.410,14.648,-164.062,-0.488,24.902
1641437246.577,33.691,17.090,-94.238,-20.508,41.016
1641437246.581,-2.441,21.484,-183.594,-101.074,25.879
1641437246.585,0.000,25.391,-141.602,-114.258,-2.930
1641437246.589,31.250,25.879,-145.508,-47.363,-6.348
1641437246.593,35.156,21.973,-286.133,-14.160,5.859
1641437246.580,-4.883,20.996,-135.254,-127.441,35.156
1641437246.584,-11.719,24.902,-62.988,-198.730,20.508
1641437246.588,29.785,24.902,-71.289,-117.676,23.926
1641437246.592,46.875,23.926,67.383,-46.387,23.926
1641437246.596,15.137,25.879,81.543,-104.004,56.641
1641437246.600,-7.812,19.043,-198.730,-174.316,65.918
1641437246.604,14.160,20.020,-393.066,-126.953,-9.277
1641437246.607,34.180,20.508,-160.645,-38.086,-19.531
1641437246.611,14.648,10.254,-22.949,-69.336,-2.930
1641437246.615,-4.883,8.301,-203.125,-153.809,8.789
1641437246.619,12.695,16.113,-621.094,-113.770,-13.184
1641437246.623,49.316,21.973,-538.086,22.461,26.367
1641437246.626,48.340,27.832,25.391,65.918,87.402
1641437246.630,6.836,31.250,-58.105,-4.883,46.875
1641437246.634,6.836,24.902,-176.758,3.906,36.133
1641437246.638,46.387,23.926,45.410,123.047,64.941
1641437246.642,48.340,24.902,207.031,187.500,68.848
1641437246.646,6.836,22.949,-124.023,84.473,29.785
1641437246.650,1.953,19.531,-534.180,21.973,22.949
1641437246.653,38.574,19.531,-218.262,102.539,70.312
1641437246.657,56.152,25.391,104.004,170.410,73.242
1641437246.661,21.484,21.484,29.785,110.840,45.898
1641437246.665,-9.277,16.113,-126.465,24.414,17.578
1641437246.669,20.020,19.043,-66.895,81.055,53.223
1641437246.685,55.664,21.484,170.898,184.570,104.980
1641437246.689,32.715,16.113,171.875,154.297,116.211
1641437246.693,-4.883,12.695,-4.395,57.617,58.594
1641437246.697,12.695,12.695,-5.859,74.219,45.410
1641437246.701,50.781,6.836,243.652,180.176,107.910
1641437246.705,41.992,7.324,35.156,163.574,94.727
1641437246.709,2.441,12.695,-315.918,34.180,68.359
1641437246.712,5.859,16.602,-54.688,15.625,95.703
1641437246.716,43.945,16.602,104.980,107.910,100.098
1641437246.720,56.152,14.648,129.395,150.391,124.023
1641437246.724,25.879,15.625,120.117,47.363,159.180
1641437246.728,10.254,12.207,-44.434,-32.715,125.488
1641437246.730,40.039,15.625,-201.660,34.180,112.793
1641437246.734,62.500,20.508,-228.516,106.445,115.234
1641437246.738,40.039,15.137,-156.738,42.969,111.816
1641437246.742,9.766,13.672,-272.949,-67.871,119.141
1641437246.746,27.344,19.043,-509.277,-26.855,147.461
1641437246.750,61.035,23.438,-528.320,93.750,173.828
1641437246.754,41.992,20.508,-361.328,90.332,183.105
1641437246.757,8.301,16.602,-291.504,-1.465,189.453
1641437246.761,17.578,17.578,-539.062,-2.441,131.348
1641437246.765,48.828,16.113,-643.066,110.840,114.746
1641437246.769,43.945,16.113,-235.840,158.203,165.039
1641437246.773,4.395,16.113,-160.645,69.336,158.203
1641437246.775,-3.906,14.160,-322.266,32.227,124.023
1641437246.779,28.809,11.230,-272.949,116.211,82.031
1641437246.783,48.828,4.883,17.090,187.988,103.516
1641437246.787,16.602,9.766,38.574,105.469,123.535
1641437246.791,3.418,19.043,-180.664,25.391,82.520
1641437246.795,35.645,23.926,-261.719,93.262,58.594
1641437246.799,56.641,30.273,-190.918,172.363,71.777
1641437246.802,29.297,26.855,-70.801,118.652,92.285
1641437246.806,3.906,23.926,-340.820,17.578,59.570
1641437246.810,26.855,26.367,-426.270,27.344,71.289
1641437246.814,59.570,26.855,121.582,86.914,142.578
1641437246.818,45.410,25.391,253.418,37.598,121.094
1641437246.820,9.766,21.484,55.176,-94.238,34.668
1641437246.824,17.090,14.160,109.863,-130.371,22.461
1641437246.828,51.270,22.461,299.805,-41.504,66.895
1641437246.832,54.688,32.227,275.391,-6.348,3.418
1641437246.836,15.625,23.438,183.105,-125.000,-65.918
1641437246.840,5.859,19.043,76.172,-180.176,-71.777
1641437246.844,43.457,24.414,138.184,-73.730,-62.500
1641437246.847,62.988,22.949,223.633,0.488,-68.359
1641437246.851,26.855,18.555,92.773,-154.785,-93.750
1641437246.855,2.441,20.020,97.656,-273.926,-134.277
1641437246.859,27.344,21.973,259.766,-161.621,-135.742
1641437246.863,49.316,18.555,373.047,-41.504,-130.859
1641437246.865,25.879,9.277,378.906,-63.477,-191.895
1641437246.869,-9.766,8.789,349.609,-162.109,-237.305
1641437246.873,5.371,14.160,250.488,-142.090,-242.676
1641437246.877,39.062,20.020,355.469,-40.039,-165.039
1641437246.881,29.297,20.996,458.008,-41.504,-144.043
1641437246.885,-3.418,20.020,259.766,-138.184,-191.895
1641437246.889,11.230,18.555,96.680,-139.160,-180.664
1641437246.892,33.691,14.648,-41.504,-56.641,-206.055
1641437246.896,19.531,15.625,81.543,-36.621,-224.121
1641437246.900,-10.254,14.160,309.082,-132.812,-172.852
1641437246.904,-17.090,8.301,16.602,-199.707,-179.688
1641437246.908,20.508,11.230,-26.367,-132.324,-143.555
1641437246.910,46.875,18.066,68.848,-71.289,-113.281
1641437246.914,10.254,19.043,17.090,-130.859,-135.254
1641437246.918,-8.789,19.043,-174.805,-203.613,-145.996
1641437246.922,22.461,19.531,-325.195,-138.672,-112.305
1641437246.926,47.852,20.020,-32.227,-14.160,-51.270
1641437246.930,29.297,20.996,19.531,-36.133,-9.766
1641437246.934,-5.371,19.043,-397.461,-144.043,-55.176
1641437246.937,0.488,17.578,-615.723,-127.930,-72.266
1641437246.941,31.738,16.602,-235.352,-23.438,19.531
1641437246.945,34.668,12.207,13.672,8.789,44.922
1641437246.949,3.418,14.160,-245.117,-67.383,-0.488
1641437246.953,2.930,24.414,-412.109,-60.059,-2.441
1641437246.954,39.062,29.785,-230.469,54.688,48.828
1641437246.958,43.457,29.297,-70.801,114.746,104.980
1641437246.962,2.441,25.879,-141.602,34.180,112.793
1641437246.966,-15.137,24.902,-349.121,-15.625,70.312
1641437246.970,10.742,20.508,-305.664,77.148,76.660
1641437246.974,28.320,14.648,-193.359,159.180,96.191
1641437246.978,-0.977,9.277,-591.797,95.215,44.434
1641437246.981,-19.531,12.207,-832.520,-2.441,39.551
1641437246.985,6.836,21.484,-435.547,46.387,41.504
1641437246.989,36.133,20.996,-223.633,185.059,48.828
1641437246.993,19.531,22.461,-199.219,197.266,84.961
1641437246.997,-19.531,26.367,-227.051,88.379,65.918
1641437247.015,-6.348,25.879,-252.441,78.125,61.523
1641437247.019,27.344,18.066,-229.492,184.570,102.051
1641437247.023,20.996,14.160,-161.621,238.281,144.043
1641437247.027,-13.184,15.137,-143.555,156.250,127.441
1641437247.031,-13.184,10.254,-244.141,111.328,109.375
1641437247.035,25.879,17.090,-450.684,178.711,87.891
1641437247.039,44.922,21.973,-548.828,231.934,85.449
1641437247.042,9.766,20.996,-334.473,146.484,120.117
1641437247.046,-8.789,21.973,-312.012,62.500,121.094
1641437247.050,25.879,18.555,-430.664,126.953,113.281
1641437247.054,53.711,17.090,-304.199,208.008,125.977
1641437247.058,29.785,16.602,-186.523,156.250,146.973
1641437247.060,0.000,14.160,-296.387,55.176,165.039
1641437247.064,21.973,10.742,-432.129,70.312,106.934
1641437247.068,61.035,9.766,-369.141,166.992,91.797
1641437247.072,51.270,16.602,-243.652,150.391,111.816
1641437247.076,14.160,21.484,-366.211,32.715,84.473
1641437247.080,14.160,21.484,-609.375,26.367,24.902
1641437247.084,46.387,20.020,-604.980,134.766,4.395
1641437247.087,51.758,16.602,-300.781,175.293,36.133
1641437247.091,15.625,15.625,-300.293,69.336,45.410
1641437247.095,6.348,15.137,-803.223,20.020,-5.859
1641437247.099,37.109,15.625,-745.117,123.047,-1.953
1641437247.103,51.270,17.578,-137.207,205.078,66.406
1641437247.106,20.508,11.230,-146.973,131.836,28.320
1641437247.110,-1.465,3.418,-289.551,44.922,-7.324
1641437247.114,26.855,7.812,-152.344,98.633,24.902
1641437247.118,56.641,13.672,42.969,180.664,78.613
1641437247.122,35.645,14.160,49.805,137.207,84.961
1641437247.126,-0.977,14.160,-178.223,22.949,60.059
1641437247.130,13.184,17.578,-251.465,24.902,55.176
1641437247.133,51.758,19.531,4.395,116.211,26.367
1641437247.137,50.781,19.531,51.270,102.539,-2.441
1641437247.141,14.160,20.508,-233.398,-21.973,-10.742
1641437247.145,17.578,19.043,17.578,-53.711,36.621
1641437247.149,61.523,13.672,198.242,37.598,33.203
1641437247.149,69.336,17.578,72.266,61.035,23.926
1641437247.153,31.250,27.832,74.707,-86.426,28.320
1641437247.157,22.949,28.320,48.340,-191.895,23.438
1641437247.161,55.176,25.879,26.367,-140.625,-15.137
1641437247.165,71.289,29.297,112.793,-83.496,-60.059
1641437247.169,38.086,29.785,-38.574,-172.852,-47.852
1641437247.173,6.836,28.809,-236.328,-274.902,-70.312
1641437247.176,31.250,30.762,-22.949,-227.051,-60.059
1641437247.180,60.059,25.391,-182.617,-137.207,-81.055
1641437247.184,41.504,21.973,-231.934,-135.254,-106.445
1641437247.188,6.348,21.484,90.332,-199.219,-61.523
1641437247.192,10.742,23.926,48.828,-175.293,-51.758
1641437247.195,46.875,31.738,95.215,-49.316,-35.645
1641437247.199,44.922,27.832,234.375,-21.484,-18.555
1641437247.203,-0.977,22.461,81.543,-107.910,-36.133
1641437247.207,-10.254,22.461,-204.102,-108.398,-72.266
1641437247.211,28.320,23.926,-173.828,3.906,-65.430
1641437247.215,31.250,20.020,52.734,100.098,9.766
1641437247.219,-9.766,10.742,71.289,41.504,61.523
1641437247.222,-20.508,11.719,-119.629,14.648,68.359
1641437247.226,11.719,19.531,-289.551,141.602,55.176
1641437247.230,33.691,22.461,47.852,235.840,36.621
1641437247.234,12.695,22.461,234.375,204.590,62.500
1641437247.238,-15.625,20.020,10.254,131.348,87.402
1641437247.240,6.348,15.137,-45.410,180.664,112.793
1641437247.244,40.039,16.113,197.754,307.129,116.699
1641437247.248,29.297,19.043,317.871,297.852,150.879
1641437247.252,-0.977,21.973,80.566,188.477,168.945
1641437247.256,7.812,19.043,-27.832,186.523,164.551
1641437247.260,39.062,13.184,41.504,290.527,207.031
1641437247.264,40.527,14.160,12.695,322.754,221.191
1641437247.267,-0.977,18.066,-257.324,217.773,208.008
1641437247.271,-12.207,18.555,-238.281,162.109,237.793
1641437247.275,26.367,16.602,175.781,232.422,275.879
1641437247.279,41.016,15.137,241.211,274.902,246.582
1641437247.283,11.230,11.719,-5.371,195.312,203.125
1641437247.285,-3.906,17.090,-7.812,118.164,215.820
1641437247.289,21.973,24.414,255.859,155.762,220.703
1641437247.293,47.363,24.414,284.180,198.730,212.402
1641437247.297,26.367,20.996,161.621,133.789,183.594
1641437247.301,-2.930,13.184,141.113,38.574,196.289
1641437247.305,15.137,16.602,82.031,71.777,229.004
1641437247.309,52.734,25.391,14.648,187.500,171.387
1641437247.312,42.480,23.926,-80.566,183.594,148.926
1641437247.316,9.277,25.391,-52.734,104.980,211.426
1641437247.320,17.578,26.367,117.676,114.258,236.816
1641437247.324,50.781,23.926,106.934,200.684,186.035
1641437247.328,51.758,20.508,145.996,225.098,215.332
1641437247.360,16.113,20.508,215.332,110.352,236.816
1641437247.364,5.859,26.855,137.207,41.016,249.512
1641437247.368,41.992,18.066,101.074,114.258,237.793
1641437247.372,64.453,14.160,193.359,180.664,220.215
1641437247.376,33.203,23.438,248.047,100.098,276.855
1641437247.380,13.184,23.438,-76.660,10.742,212.402
1641437247.384,33.203,22.461,-454.102,58.105,137.207
1641437247.387,58.105,24.414,-229.492,148.926,158.203
1641437247.391,36.621,21.973,135.742,93.262,150.879
1641437247.395,-3.418,18.066,-59.570,-30.273,122.070
1641437247.399,9.766,19.531,-256.836,-11.230,124.512
1641437247.403,46.387,19.043,-148.926,98.145,126.465
1641437247.390,39.062,20.508,100.586,105.469,116.699
1641437247.394,0.977,20.020,-76.172,-16.113,124.023
1641437247.398,9.766,8.789,-379.883,-47.363,73.730
1641437247.402,56.641,10.254,-124.023,70.312,50.293
1641437247.406,53.223,23.438,132.812,125.000,95.215
1641437247.410,-4.883,23.438,-201.660,9.766,53.711
1641437247.414,-12.695,18.066,-392.090,-43.945,3.906
1641437247.417,28.320,17.090,-90.820,55.176,39.062
1641437247.421,40.039,19.043,180.176,143.555,99.609
1641437247.425,9.766,21.484,44.434,87.402,92.773
1641437247.429,-7.324,21.973,-155.762,-1.953,56.641
1641437247.433,17.578,23.926,-46.387,45.898,48.828
1641437247.435,42.969,25.879,162.598,143.555,72.754
1641437247.439,29.785,19.531,-87.402,119.629,41.016
1641437247.443,6.348,9.277,-502.930,31.250,7.812
1641437247.447,20.020,11.230,-189.453,47.363,67.871
1641437247.451,46.387,15.625,94.238,155.273,84.473
1641437247.455,39.062,14.648,5.371,174.316,62.012
1641437247.459,5.859,14.648,-241.699,62.500,17.578
1641437247.462,3.418,16.113,-144.531,31.250,14.648
1641437247.466,35.645,15.625,156.250,106.445,82.031
1641437247.470,44.922,13.184,-72.266,144.531,69.824
1641437247.474,6.348,15.137,-174.805,47.852,60.059
1641437247.478,-6.348,17.578,8.301,-40.039,76.660
1641437247.481,26.367,12.207,-21.973,23.438,72.266
1641437247.485,44.922,13.184,35.645,94.727,93.750
1641437247.489,17.578,22.949,101.562,33.203,93.750
1641437247.493,-7.812,25.391,-19.043,-78.613,97.656
1641437247.497,10.742,18.555,-250.977,-56.152,64.453
1641437247.501,36.621,14.160,-284.180,49.316,31.738
1641437247.505,27.832,18.555,-196.289,25.391,9.766
1641437247.508,-7.812,24.902,-223.633,-90.820,9.277
1641437247.512,-2.441,24.414,-381.348,-104.980,21.484
1641437247.516,36.621,23.438,-550.293,-8.301,8.301
1641437247.520,39.062,25.391,-174.316,31.250,85.449
1641437247.524,-0.977,21.484,-67.383,-70.801,77.148
1641437247.540,-3.906,14.160,-335.449,-96.191,15.625
1641437247.544,35.156,13.672,-268.555,9.766,15.137
1641437247.548,49.316,17.090,-46.875,80.566,4.395
1641437247.552,15.137,18.066,-81.055,18.066,12.695
1641437247.556,-3.906,21.973,-261.719,-51.270,-16.602
1641437247.560,29.297,27.344,-441.895,17.578,-21.973
1641437247.564,53.223,28.809,-300.293,105.469,99.609
1641437247.567,31.250,26.855,-148.438,63.477,120.605
1641437247.571,-4.883,22.461,-560.059,-36.133,11.719
1641437247.575,3.906,18.555,-661.133,-15.137,-24.902
1641437247.579,37.598,17.578,-124.023,87.891,30.273
1641437247.583,24.414,11.719,-15.625,73.242,46.387
1641437247.585,-12.695,11.230,-278.809,-42.969,-0.488
1641437247.589,-4.883,14.160,-266.113,-60.547,-31.738
1641437247.593,31.738,13.184,-9.766,27.832,14.160
1641437247.597,30.762,17.090,49.316,57.129,42.480
1641437247.601,-13.184,17.578,-63.477,-52.734,6.836
1641437247.605,-18.555,17.090,-153.320,-107.422,-48.828
1641437247.609,22.461,18.066,-86.426,-14.648,-52.734
1641437247.612,33.203,17.090,52.246,59.082,-33.691
1641437247.616,3.418,22.949,164.062,-6.836,-28.809
1641437247.620,-13.184,22.461,72.266,-89.355,-38.574
1641437247.624,16.602,16.602,94.238,-32.227,-38.574
1641437247.628,48.828,20.996,138.672,67.383,-59.570
1641437247.614,28.809,21.484,-75.684,41.992,-38.086
1641437247.618,-5.859,20.020,42.969,-69.336,-16.113
1641437247.622,5.859,20.020,149.902,-66.895,-40.527
1641437247.626,44.434,19.531,223.633,36.621,-31.738
1641437247.630,42.969,23.438,319.824,46.387,-18.555
1641437247.634,13.672,19.531,98.145,-62.012,-28.809
1641437247.638,11.719,15.625,-118.164,-97.656,11.719
1641437247.641,49.316,20.508,-114.258,-7.324,32.715
1641437247.645,64.941,19.531,20.508,48.828,19.531
1641437247.649,20.996,10.742,16.602,-43.945,30.273
1641437247.653,8.789,11.230,-199.707,-108.887,7.812
1641437247.657,43.945,19.531,-494.629,-31.250,-38.086
1641437247.675,62.988,25.391,-415.039,48.828,-8.789
1641437247.679,28.809,25.879,-145.996,0.000,14.648
1641437247.683,0.977,22.461,-318.848,-70.801,-62.988
1641437247.687,25.391,21.484,-365.234,-5.371,-92.285
1641437247.691,52.734,25.391,6.836,99.609,-42.480
1641437247.695,48.340,26.367,-66.895,81.543,-56.152
1641437247.699,14.160,18.555,-509.277,-25.391,-121.582
1641437247.702,4.395,14.160,-692.871,-41.992,-120.117
1641437247.706,37.598,12.207,-323.242,50.293,-41.992
1641437247.710,45.898,12.207,-29.297,79.590,-14.160
1641437247.714,9.277,12.695,-218.750,-22.949,-62.012
1641437247.718,7.324,11.230,-297.852,-45.898,-25.879
1641437247.705,46.875,16.113,-108.398,64.453,28.320
1641437247.709,49.805,22.461,-15.625,127.441,-0.488
1641437247.713,10.742,22.461,-133.301,41.504,-21.484
1641437247.717,3.906,21.973,-315.430,-17.090,-12.695
1641437247.721,34.668,22.461,-172.363,80.078,62.012
1641437247.725,54.199,22.949,16.602,172.363,106.445
1641437247.729,26.855,15.137,-224.121,107.422,41.504
1641437247.732,-1.953,11.230,-343.262,13.672,25.391
1641437247.736,19.531,11.230,-103.516,67.383,77.148
1641437247.740,43.945,12.207,100.098,183.105,96.191
1641437247.744,25.391,10.742,-187.012,166.992,61.035
1641437247.748,-5.371,13.184,-313.477,45.898,51.758
1641437247.781,9.277,20.996,-38.086,40.527,54.688
1641437247.785,43.945,20.508,8.301,150.391,46.387
1641437247.789,37.109,17.578,137.207,181.641,50.781
1641437247.793,-4.395,14.648,158.203,67.383,83.496
1641437247.797,-9.277,16.602,24.902,6.836,79.590
1641437247.801,24.414,18.066,-133.301,79.102,82.031
1641437247.805,37.109,11.230,-199.707,134.277,92.773
1641437247.808,1.953,7.812,-14.648,64.941,63.477
1641437247.812,-15.625,12.695,78.613,2.930,71.777
1641437247.816,18.066,20.020,-92.285,77.637,79.590
1641437247.820,47.852,26.367,8.789,169.434,101.562
1641437247.824,27.832,26.367,282.227,124.023,115.234
1641437247.811,-4.883,21.484,143.555,17.578,67.383
1641437247.815,9.277,21.973,40.039,29.785,62.988
1641437247.819,43.945,21.484,177.734,125.488,66.895
1641437247.823,33.691,14.648,283.203,107.910,80.566
1641437247.827,0.488,11.230,91.797,-3.906,48.340
1641437247.831,14.648,17.090,-185.059,-18.066,9.766
1641437247.835,50.781,20.020,-183.594,66.406,43.945
1641437247.838,52.246,14.160,84.961,117.676,98.145
1641437247.842,19.043,16.602,-6.348,23.926,58.594
1641437247.846,7.812,21.973,-279.297,-39.551,37.598
1641437247.850,36.621,22.949,-97.656,40.527,116.211
1641437247.854,51.758,24.902,57.617,96.191,116.211
1641437247.855,13.184,21.973,-72.754,15.625,118.652
1641437247.859,-13.184,15.137,-601.562,-78.125,114.258
1641437247.863,13.184,20.508,-631.836,-25.391,120.117
1641437247.867,38.574,17.578,-31.250,76.172,162.109
1641437247.871,20.996,16.602,-35.156,42.480,136.230
1641437247.875,-11.719,20.020,-342.285,-70.312,125.488
1641437247.879,1.953,14.160,-381.836,-50.781,107.910
1641437247.882,39.551,15.137,-78.125,70.801,103.516
1641437247.886,32.227,20.020,-75.684,88.379,102.539
1641437247.890,-7.324,19.531,-408.203,-15.625,63.477
1641437247.894,-5.859,18.555,-176.758,-33.203,70.312
1641437247.898,27.832,18.555,15.625,66.895,111.816
1641437247.900,35.156,17.090,-75.684,110.352,108.398
1641437247.904,0.977,19.531,-41.992,4.883,81.055
1641437247.908,-11.230,21.973,25.391,-74.219,65.918
1641437247.912,26.855,15.625,46.387,3.906,43.457
1641437247.916,48.828,12.695,118.164,91.309,33.691
1641437247.920,20.508,13.184,29.785,29.785,50.293
1641437247.924,-3.906,13.672,-155.762,-66.406,43.457
1641437247.927,16.113,19.043,-30.762,-35.645,55.664
1641437247.931,52.734,25.391,-54.688,48.828,60.059
1641437247.935,46.875,25.391,-62.500,22.949,62.012
1641437247.939,7.324,24.902,85.449,-86.426,39.062
1641437247.943,12.695,22.461,-90.332,-83.008,4.395
1641437247.992,51.270,19.043,-98.145,24.414,39.062
1641437247.996,46.387,17.090,103.516,42.480,88.867
1641437248.000,5.859,17.090,-42.480,-65.918,41.992
1641437248.004,4.883,14.648,-453.125,-101.562,-18.066
1641437248.008,36.621,11.719,-375.977,-4.395,21.484
1641437248.012,42.969,19.043,-141.113,56.152,34.180
1641437248.016,11.230,20.508,-205.566,-22.949,20.508
1641437248.019,-7.324,20.020,-348.145,-85.938,-0.488
1641437248.023,19.043,21.484,-334.473,-6.836,-52.734
1641437248.027,43.945,20.996,-11.719,83.008,-22.461
1641437248.031,22.461,22.461,84.961,32.715,43.945
1641437248.035,0.977,19.043,-289.551,-64.941,-26.367
1641437247.997,20.020,19.043,-415.039,-33.691,-26.855
1641437248.001,53.223,26.855,-130.859,70.312,31.250
1641437248.005,39.551,26.367,-19.531,55.176,-8.789
1641437248.009,0.488,23.926,-314.941,-49.805,-71.289
1641437248.013,12.207,19.043,-465.820,-56.641,-111.328
1641437248.017,53.711,17.090,-317.383,50.293,-73.242
1641437248.021,53.223,21.484,-266.113,104.492,-15.137
1641437248.024,15.137,27.344,-383.301,14.160,-12.207
1641437248.028,15.625,29.297,-426.270,-20.508,6.348
1641437248.032,49.316,28.320,-280.762,69.336,33.203
1641437248.036,65.430,24.902,-173.828,151.855,33.691
1641437248.040,30.762,19.531,-273.926,94.727,43.457
1641437248.035,3.418,19.531,-340.820,23.438,54.199
1641437248.039,31.738,18.066,-203.125,97.656,91.309
1641437248.043,58.594,17.090,-65.430,193.848,142.578
1641437248.047,35.156,11.719,-66.895,153.320,147.949
1641437248.051,-0.488,12.207,-171.387,59.082,53.223
1641437248.055,18.066,20.020,-161.133,84.473,36.621
1641437248.059,52.734,14.648,-59.082,182.617,90.820
1641437248.062,41.016,11.230,-167.969,172.852,101.562
1641437248.066,11.719,11.719,-437.012,53.711,89.355
1641437248.070,34.180,9.766,-595.703,63.965,31.250
1641437248.074,66.895,22.949,-313.965,167.480,46.875
1641437248.078,41.504,33.203,145.020,162.598,85.938
1641437248.125,-13.672,27.832,170.898,24.902,55.664
1641437248.129,-21.973,16.113,23.438,-42.480,24.414
1641437248.133,14.648,20.996,67.383,33.203,57.617
1641437248.137,24.902,29.785,303.223,77.148,61.523
1641437248.141,-12.207,25.879,358.887,-5.371,15.137
1641437248.145,-40.039,20.508,114.258,-94.727,-3.418
1641437248.149,-23.926,17.090,-182.617,-41.504,-46.875
1641437248.152,-2.441,23.926,1.953,57.617,-27.344
1641437248.156,-21.484,21.973,504.395,31.738,23.926
1641437248.160,-51.758,15.137,441.895,-71.289,-23.438
1641437248.164,-38.574,18.555,255.371,-59.570,-46.875
1641437248.168,2.930,22.949,400.879,56.641,1.953
1641437248.130,10.254,24.902,619.141,72.266,19.043
1641437248.134,-25.391,20.508,422.363,-38.086,-23.438
1641437248.138,-13.184,19.531,169.434,-69.336,-54.688
1641437248.142,33.691,26.367,438.965,24.902,12.695
1641437248.146,43.945,28.320,734.863,92.773,59.570
1641437248.150,9.766,24.414,405.273,7.324,-4.883
1641437248.154,-2.441,22.949,125.977,-57.617,-56.641
1641437248.157,28.809,24.902,440.918,-1.465,-33.203
1641437248.161,45.898,26.855,718.750,64.941,40.527
1641437248.165,20.020,29.785,529.297,22.949,31.738
1641437248.169,-2.930,28.809,286.621,-71.289,13.184
1641437248.173,14.160,21.484,466.797,-21.484,48.828
1641437248.171,37.598,22.949,673.828,85.449,53.223
1641437248.175,20.996,23.926,577.637,63.477,37.109
1641437248.179,-11.230,24.902,340.820,-41.992,28.809
1641437248.183,-1.465,20.996,311.523,-50.781,58.105
1641437248.187,34.668,16.113,424.805,48.340,41.016
1641437248.191,40.527,22.949,425.781,67.871,38.086
1641437248.195,-4.883,20.996,100.586,-63.965,25.391
1641437248.198,-7.812,17.578,-67.383,-110.840,-36.621
1641437248.202,34.668,22.949,324.707,-13.184,-18.066
1641437248.206,48.340,26.855,725.098,45.898,11.719
1641437248.210,17.090,27.344,745.605,-52.246,-19.531
1641437248.214,1.953,26.855,646.484,-149.902,-56.641
1641437248.246,33.203,26.855,617.676,-93.750,-43.457
1641437248.250,59.082,22.949,719.238,-10.254,-21.973
1641437248.254,36.133,17.090,795.410,-72.266,-18.066
1641437248.258,4.883,17.090,707.520,-191.895,-35.156
1641437248.262,21.973,20.508,526.367,-159.668,-78.613
1641437248.266,56.152,20.020,323.242,-42.969,-84.473
1641437248.270,38.574,25.879,479.980,-59.570,-40.039
1641437248.273,2.441,29.297,663.574,-168.945,-4.395
1641437248.277,16.602,23.438,355.469,-185.059,-70.312
1641437248.281,48.340,22.949,236.328,-119.141,-96.191
1641437248.285,49.316,23.926,667.480,-102.051,11.719
1641437248.289,8.301,18.066,645.020,-211.426,-41.992
1641437248.291,-6.348,14.160,270.508,-271.973,-94.727
1641437248.295,29.297,21.484,252.441,-195.801,-43.945
1641437248.299,41.504,19.043,411.133,-142.578,-4.883
1641437248.303,7.812,13.184,348.145,-200.684,35.156
1641437248.307,-15.137,13.672,38.574,-277.344,25.879
1641437248.311,5.371,18.066,-201.660,-225.098,-7.324
1641437248.315,33.203,20.996,-93.262,-119.141,9.766
1641437248.318,12.207,14.160,-120.117,-135.254,39.551
1641437248.322,-19.531,14.648,-349.609,-191.895,3.418
1641437248.326,-6.836,20.996,-308.105,-131.836,-7.812
1641437248.330,26.855,20.508,-110.840,15.137,16.602
1641437248.334,23.926,14.648,-74.707,61.035,35.156
1641437248.320,-16.602,10.254,-522.461,-26.367,16.602
1641437248.324,-9.277,9.277,-723.633,-18.555,-17.090
1641437248.328,33.203,9.766,-212.402,101.562,-1.465
1641437248.332,38.574,16.113,30.273,165.039,42.480
1641437248.336,8.301,23.926,-98.145,77.637,40.527
1641437248.340,12.695,31.250,-250.000,32.227,48.340
1641437248.344,41.992,31.250,-247.070,131.348,78.125
1641437248.347,59.082,28.320,-156.738,199.219,43.945
1641437248.351,37.598,28.320,-182.617,125.000,14.648
1641437248.355,16.113,26.855,-161.133,28.320,56.152
1641437248.359,42.480,26.367,-164.551,64.453,10.254
1641437248.363,69.336,27.832,-316.406,159.180,-28.809
1641437248.425,51.758,22.461,-503.906,133.789,-21.484
1641437248.429,18.555,16.602,-450.684,28.320,-17.578
1641437248.433,27.832,21.484,-369.629,38.086,28.809
1641437248.437,53.223,29.785,-540.039,138.184,25.879
1641437248.441,34.180,31.250,-629.395,149.902,-9.277
1641437248.445,-4.883,30.273,-598.145,58.105,12.207
1641437248.449,-4.883,20.020,-810.059,24.414,17.090
1641437248.452,26.367,13.672,-748.047,115.234,68.359
1641437248.456,34.180,17.578,-527.832,174.316,118.164
1641437248.460,2.441,21.484,-595.215,83.496,112.305
1641437248.464,-15.625,20.020,-863.281,20.996,70.801
1641437248.468,5.859,18.066,-964.355,110.352,4.395
1641437248.431,24.414,25.391,-956.055,203.125,6.348
1641437248.435,-3.906,25.879,-964.355,144.043,29.297
1641437248.439,-32.715,28.320,-971.680,64.941,-13.672
1641437248.443,-14.648,26.367,-968.750,131.836,-31.250
1641437248.447,18.066,27.344,-969.727,251.953,8.301
1641437248.451,7.812,35.156,-969.727,238.281,-7.324
1641437248.455,-35.156,39.062,-969.727,117.188,-41.016
1641437248.458,-29.785,32.715,-969.727,118.652,-12.207
1641437248.462,2.441,41.992,-969.727,228.516,29.785
1641437248.466,-1.953,49.316,-969.727,248.535,52.734
1641437248.470,-36.621,41.992,-969.238,138.672,30.273
1641437248.474,-38.574,47.852,-969.727,83.984,-24.414
1641437248.461,-9.277,53.223,-969.727,155.273,-34.668
1641437248.465,-3.418,52.734,-969.238,219.238,-33.203
1641437248.469,-36.133,55.664,-969.238,144.531,-45.410
1641437248.473,-61.523,58.105,-969.727,50.293,-46.387
1641437248.477,-42.480,53.711,-969.727,93.750,-14.648
1641437248.481,-17.090,61.035,-969.727,185.059,29.785
1641437248.485,-33.691,62.988,-969.238,120.117,67.871
1641437248.488,-65.918,58.594,-969.238,-5.859,26.367
1641437248.492,-50.781,59.082,-969.727,19.531,-7.812
1641437248.496,-14.648,55.176,-970.215,148.926,5.859
1641437248.500,-25.391,58.594,-966.309,163.086,10.742
1641437248.504,-73.242,62.500,-970.215,28.320,7.324
1641437248.500,-67.383,59.570,-971.191,4.395,23.438
1641437248.504,-20.020,56.641,-856.445,111.328,83.496
1641437248.508,-19.531,53.711,-774.414,143.066,118.652
1641437248.512,-54.199,51.270,-849.609,29.297,102.051
1641437248.516,-52.246,47.363,-884.766,-30.762,75.684
1641437248.520,-10.742,41.504,-835.449,49.805,86.426
1641437248.524,24.414,37.598,-923.828,110.840,83.008
1641437248.527,0.488,36.621,-1000.000,15.625,69.824
1641437248.531,-12.695,39.062,-849.609,-82.520,116.211
1641437248.535,26.367,34.180,-712.402,-23.926,155.762
1641437248.539,56.152,30.273,-564.453,55.664,157.715
1641437248.543,43.457,31.250,-286.133,21.484,194.336
1641437248.549,20.508,30.273,-332.520,-64.453,191.895
1641437248.553,32.227,26.855,-412.598,-38.086,165.527
1641437248.557,62.500,20.020,-217.285,82.520,187.988
1641437248.561,64.941,15.137,1.953,102.051,185.547
1641437248.565,31.250,8.301,-79.102,-2.441,144.043
1641437248.569,35.156,3.418,-282.715,-9.766,111.328
1641437248.573,73.730,6.836,-212.891,102.051,112.305
1641437248.576,76.172,8.301,179.199,147.949,102.051
1641437248.580,42.969,9.766,282.715,48.828,44.434
1641437248.584,31.250,10.254,104.004,-15.625,55.176
1641437248.588,61.035,4.883,286.621,61.035,82.031
1641437248.592,82.031,2.441,606.934,124.512,55.664
1641437248.605,52.246,0.977,538.086,50.781,45.410
1641437248.609,25.879,-1.465,319.336,-58.594,26.855
1641437248.613,56.641,7.324,485.840,-19.043,37.598
1641437248.617,93.750,6.348,805.176,105.957,90.332
1641437248.621,79.102,-7.812,785.645,94.238,105.957
1641437248.625,49.316,-8.789,258.789,-7.812,40.039
1641437248.629,61.523,-3.418,91.797,6.836,8.301
1641437248.632,94.238,2.930,636.719,130.371,65.918
1641437248.636,89.844,0.977,929.199,168.457,95.703
1641437248.640,45.410,-2.441,833.008,58.594,114.258
1641437248.644,37.109,-0.977,870.605,27.344,128.906
1641437248.648,73.242,-7.324,974.121,132.812,112.305
1641437248.650,84.473,-5.371,940.918,194.824,112.793
1641437248.654,45.898,-1.953,900.391,94.727,92.285
1641437248.658,29.785,-10.254,944.336,6.836,45.410
1641437248.662,56.152,-12.207,957.031,59.570,14.648
1641437248.666,83.008,-5.859,995.117,129.395,18.066
1641437248.670,62.012,-5.371,903.320,70.801,-1.465
1641437248.674,32.227,-3.906,746.582,-29.785,-32.227
1641437248.677,56.641,0.488,897.461,1.465,-3.906
1641437248.681,84.961,0.000,827.637,92.285,15.137
1641437248.685,69.824,-0.488,773.438,70.801,31.738
1641437248.689,35.156,5.371,-999.512,-30.762,53.711
1641437248.693,42.480,5.859,917.969,-20.508,48.340
1641437248.695,80.078,0.488,896.973,102.051,57.617
1641437248.699,77.637,1.953,-994.141,134.766,104.492
1641437248.703,40.527,11.719,985.352,28.320,95.703
1641437248.707,40.039,16.113,886.230,19.043,56.152
1641437248.711,82.520,17.090,911.133,140.137,51.270
1641437248.715,98.145,17.578,989.746,189.453,39.062
1641437248.719,58.594,17.090,-975.098,84.473,114.258
1641437248.722,33.691,12.695,860.352,-20.996,145.020
1641437248.726,54.199,11.230,710.449,30.762,76.172
1641437248.730,79.102,15.625,956.055,126.465,115.234
1641437248.734,56.152,14.648,-970.215,78.125,133.301
1641437248.738,20.996,9.277,877.441,-37.598,51.270
1641437248.740,26.367,16.113,864.258,-25.879,20.020
1641437248.744,56.152,16.602,988.281,83.008,22.949
1641437248.748,51.270,8.789,-990.723,83.496,0.488
1641437248.752,8.789,10.742,849.121,-26.367,-8.301
1641437248.756,9.766,11.719,788.086,-25.879,13.184
1641437248.760,44.434,11.719,807.617,86.914,24.414
1641437248.764,46.875,13.184,793.457,135.742,0.000
1641437248.767,11.719,11.230,575.684,46.387,-40.527
1641437248.771,4.395,7.812,426.270,2.930,-49.805
1641437248.775,36.621,3.906,814.941,96.680,-16.602
1641437248.779,50.293,8.301,981.934,177.734,-11.719
1641437248.783,18.066,11.230,927.734,133.301,-15.625
1641437248.815,-2.930,7.812,932.129,58.594,-0.977
1641437248.819,22.949,11.230,950.684,107.910,21.973
1641437248.823,55.176,16.113,985.840,196.289,42.480
1641437248.827,39.062,10.742,990.723,143.066,33.691
1641437248.831,5.371,6.836,865.234,27.344,-12.207
1641437248.835,20.020,8.301,669.922,42.969,-2.441
1641437248.839,58.105,6.836,628.418,153.320,35.645
1641437248.842,51.270,3.906,575.684,143.555,-3.418
1641437248.846,14.648,11.719,545.898,9.766,-18.066
1641437248.850,17.090,18.555,627.441,-20.020,39.551
1641437248.854,54.688,19.043,618.164,77.148,38.574
1641437248.858,63.965,15.137,652.344,120.605,55.176
1641437248.845,25.391,13.672,665.039,11.719,62.988
1641437248.849,13.184,17.578,483.398,-50.781,12.207
1641437248.853,41.504,14.160,293.945,33.691,-6.348
1641437248.857,57.617,12.207,393.066,106.934,-23.926
1641437248.861,33.203,14.160,520.996,48.340,-10.742
1641437248.865,12.207,10.742,191.406,-44.434,5.859
1641437248.869,41.016,14.648,43.457,5.859,4.883
1641437248.872,68.359,17.090,309.570,118.164,-11.230
1641437248.876,49.316,15.137,522.461,106.445,20.508
1641437248.880,19.043,17.090,322.754,0.000,18.555
1641437248.884,31.250,17.578,49.805,-10.742,-13.184
1641437248.888,64.453,19.043,103.027,82.520,-3.906
1641437248.890,56.152,19.531,274.902,99.121,7.324
1641437248.894,10.742,16.113,158.203,-14.648,-12.207
1641437248.898,11.230,6.836,-383.301,-48.340,-11.230
1641437248.902,49.805,4.883,-293.945,49.316,5.371
1641437248.906,60.547,17.090,216.797,103.516,16.113
1641437248.910,24.414,20.020,-19.531,22.461,10.742
1641437248.914,5.371,18.066,-235.352,-35.645,17.578
1641437248.917,36.133,21.973,-25.879,39.062,20.020
1641437248.921,55.176,24.902,206.543,124.023,12.695
1641437248.925,22.461,19.043,-17.090,84.473,13.184
1641437248.929,-8.789,14.648,-428.711,-7.324,-21.973
1641437248.933,13.184,17.090,-150.391,37.109,14.648
1641437248.951,50.293,19.531,221.191,158.691,97.168
1641437248.955,41.016,10.254,206.055,149.414,122.559
1641437248.959,7.812,9.766,-91.797,34.668,89.844
1641437248.963,18.066,22.461,-155.273,22.949,80.566
1641437248.967,57.617,27.832,75.684,126.953,100.098
1641437248.971,64.941,22.461,-26.855,155.273,97.168
1641437248.975,27.832,20.020,-190.918,44.922,83.496
1641437248.978,26.367,24.902,-52.734,6.836,78.613
1641437248.982,62.988,28.809,129.395,107.910,107.910
1641437248.986,71.289,25.391,-20.508,168.945,110.352
1641437248.990,45.410,27.344,-136.719,75.195,86.914
1641437248.994,30.762,27.832,46.875,-11.230,88.867
1641437248.981,41.016,20.020,-64.453,24.902,49.805
1641437248.985,47.852,15.137,-75.684,90.820,86.914
1641437248.989,28.809,9.277,69.824,38.574,106.934
1641437248.993,2.441,7.812,-1.953,-62.500,54.688
1641437248.997,15.137,12.207,-147.461,-30.273,60.059
1641437249.001,51.758,24.414,-162.109,87.402,74.707
1641437249.005,41.992,30.762,-90.820,90.820,112.305
1641437249.008,0.977,25.879,-46.875,-23.926,117.676
1641437249.012,2.441,23.926,-94.727,-42.480,100.098
1641437249.016,37.598,20.020,-26.855,54.688,90.820
1641437249.020,44.434,18.555,248.535,95.215,101.074
1641437249.024,10.254,14.160,194.336,3.418,107.422
1641437249.025,3.418,6.836,-165.527,-37.598,47.363
1641437249.029,38.086,11.719,-395.020,50.293,18.555
1641437249.033,50.293,20.020,50.781,118.164,75.684
1641437249.037,20.508,21.973,291.992,50.781,82.031
1641437249.041,-3.418,19.043,40.039,-36.621,34.180
1641437249.045,17.578,16.602,-158.691,15.625,-9.277
1641437249.049,49.316,17.090,0.977,119.629,-10.254
1641437249.052,32.715,20.020,267.090,95.215,76.172
1641437249.056,1.465,20.996,-143.066,-4.883,42.969
1641437249.060,16.113,22.949,-405.762,-1.465,-6.348
1641437249.064,51.270,16.602,125.977,113.281,43.457
1641437249.068,51.270,16.113,338.379,140.625,108.887
1641437249.101,14.160,23.438,123.535,15.137,112.305
1641437249.105,10.254,20.996,76.660,-19.531,66.895
1641437249.109,33.691,20.996,192.871,67.871,66.895
1641437249.113,41.016,22.949,199.707,112.793,57.617
1641437249.117,6.836,20.996,60.547,13.672,32.715
1641437249.121,-12.695,19.531,-161.621,-54.688,37.109
1641437249.125,17.090,20.020,-150.391,41.504,68.848
1641437249.128,34.668,17.090,-3.418,126.465,87.891
1641437249.132,5.859,14.648,-121.582,68.848,97.656
1641437249.136,-15.137,19.531,-116.699,-24.902,85.938
1641437249.140,12.695,21.973,-65.430,20.508,84.473
1641437249.144,36.621,23.926,36.133,134.277,108.398
1641437249.115,25.879,23.438,138.672,113.770,84.473
1641437249.119,-2.930,20.996,96.680,3.906,55.176
1641437249.123,0.977,22.461,63.477,-0.977,38.574
1641437249.127,40.527,20.508,92.773,104.980,67.383
1641437249.131,41.504,15.137,125.000,132.324,59.082
1641437249.135,3.418,9.277,-68.359,13.672,20.020
1641437249.139,3.418,13.184,-223.145,-28.320,41.504
1641437249.142,39.062,21.973,-125.977,53.711,54.688
1641437249.146,45.410,21.484,92.285,104.004,66.895
1641437249.150,14.160,23.926,142.090,23.926,84.473
1641437249.154,1.465,23.438,-77.637,-52.246,109.375
1641437249.158,24.902,19.531,-185.059,16.113,105.957
1641437249.161,47.363,19.043,36.621,101.074,108.887
1641437249.165,23.438,17.578,-9.766,50.293,125.000
1641437249.169,0.977,13.184,-340.332,-33.691,101.562
1641437249.173,21.973,6.348,-598.145,7.324,57.617
1641437249.177,47.852,7.324,-437.500,104.980,49.805
1641437249.181,34.180,14.648,-78.125,91.309,91.309
1641437249.185,-3.906,18.066,-280.273,-16.113,56.152
1641437249.188,6.348,22.949,-489.258,-11.230,6.348
1641437249.192,42.969,25.391,-135.254,110.352,25.391
1641437249.196,39.551,23.926,178.711,155.762,49.805
1641437249.200,-1.465,17.090,9.277,59.082,60.059
1641437249.204,-12.695,9.277,-160.645,24.414,62.500
1641437249.220,22.461,9.277,41.016,128.418,56.641
1641437249.224,43.457,12.207,224.609,196.777,27.832
1641437249.228,8.789,11.719,102.051,109.375,-19.043
1641437249.232,-6.348,8.301,-116.699,34.180,-46.875
1641437249.236,24.902,9.766,-116.699,103.516,-52.246
1641437249.240,47.363,15.625,25.879,193.848,-20.020
1641437249.244,27.832,13.672,-207.520,149.414,-12.207
1641437249.247,-0.977,15.625,-422.852,35.645,-46.875
1641437249.251,20.508,18.555,-86.914,39.062,-20.020
1641437249.255,58.105,16.602,145.020,134.277,29.297
1641437249.259,46.875,18.066,154.785,136.230,44.922
1641437249.263,5.859,19.531,34.180,15.137,-2.930
1641437249.265,8.789,20.996,-26.855,-15.625,-20.020
1641437249.269,44.922,14.160,-8.301,67.383,-6.836
1641437249.273,50.781,9.277,5.859,84.961,31.250
1641437249.277,13.184,16.113,14.160,-30.762,49.805
1641437249.281,2.441,17.090,-100.098,-103.516,-13.184
1641437249.285,30.273,13.672,-251.465,-53.223,-12.207
1641437249.289,52.246,17.090,-203.125,-22.461,31.250
1641437249.292,22.461,18.555,-94.238,-123.047,8.789
1641437249.296,-2.441,18.555,-111.816,-224.609,-32.715
1641437249.300,26.367,16.602,-241.211,-188.965,-1.953
1641437249.304,56.641,9.766,-421.875,-112.305,10.254
1641437249.308,39.551,10.254,-141.602,-148.438,3.906
1641437249.355,1.465,10.742,-8.301,-264.648,5.859
1641437249.359,14.160,14.160,-165.527,-254.395,-8.789
1641437249.363,51.270,16.602,10.742,-125.977,10.742
1641437249.367,39.062,13.184,174.316,-104.492,32.715
1641437249.371,1.465,11.719,26.855,-213.867,20.996
1641437249.375,2.441,12.207,-246.094,-234.375,24.414
1641437249.379,33.691,11.719,-254.883,-139.160,40.527
1641437249.382,42.969,11.719,-10.742,-96.191,53.711
1641437249.386,2.441,13.672,-153.320,-202.148,15.137
1641437249.390,-10.742,14.648,-538.574,-278.809,-46.387
1641437249.394,27.344,15.137,-486.816,-198.730,10.742
1641437249.398,49.316,12.695,-306.152,-121.094,51.758
1641437249.359,18.066,13.184,-493.164,-171.387,10.254
1641437249.363,-10.742,13.184,-895.020,-265.625,-50.781
1641437249.367,10.254,14.648,-923.340,-220.703,-69.336
1641437249.371,46.875,17.578,-620.605,-75.195,5.859
1641437249.375,33.203,14.160,-713.867,-57.129,8.301
1641437249.379,-8.789,13.184,-969.238,-150.391,-46.387
