timestamps,TP9,AF7,AF8,TP10,Right AUX
1641937081.957,54.199,11.230,-148.438,54.199,30.762
1641937081.961,32.715,9.766,-298.828,39.062,9.277
1641937081.965,38.086,14.648,-368.164,30.273,42.480
1641937081.969,73.242,24.902,-172.363,42.480,68.359
1641937081.973,88.379,24.414,-131.836,61.035,70.801
1641937081.977,62.988,11.719,-304.688,54.688,47.363
1641937081.980,46.875,10.742,-394.531,37.598,20.020
1641937081.984,81.055,21.973,-223.145,38.574,38.086
1641937081.988,102.539,22.949,-73.730,60.059,68.359
1641937081.992,85.938,12.695,-325.684,65.918,48.828
1641937081.996,75.684,18.555,-388.184,48.828,20.996
1641937082.000,86.426,35.645,-79.590,52.734,45.898
1641937082.017,100.098,34.180,-39.551,69.336,62.988
1641937082.021,87.402,23.438,-164.551,76.660,60.059
1641937082.025,67.383,23.438,-199.219,64.453,38.574
1641937082.029,66.895,24.414,-18.066,55.176,25.391
1641937082.033,82.031,14.160,-64.941,67.871,-12.695
1641937082.037,87.891,13.672,-347.656,82.031,-31.250
1641937082.040,64.453,26.367,-204.590,76.172,6.348
1641937082.044,48.828,19.531,89.355,67.383,44.434
1641937082.048,64.453,8.789,-95.703,72.266,17.578
1641937082.052,81.543,23.926,-191.406,85.449,6.348
1641937082.056,62.500,36.133,101.562,67.383,31.738
1641937082.060,30.762,28.320,128.906,41.992,37.598
1641937082.061,44.434,23.438,-0.977,44.434,19.531
1641937082.065,77.148,21.484,9.277,62.500,-6.836
1641937082.069,65.430,31.250,143.066,67.871,43.945
1641937082.073,39.551,35.645,177.734,44.434,107.910
1641937082.077,52.734,30.273,-8.301,36.621,74.707
1641937082.081,80.078,28.809,-145.508,52.734,36.133
1641937082.084,77.148,36.133,-120.605,58.594,32.227
1641937082.088,47.852,41.504,82.520,41.016,81.543
1641937082.092,35.645,28.320,-125.977,22.461,94.238
1641937082.096,57.129,34.180,-383.301,30.273,44.434
1641937082.100,67.383,42.480,-34.668,54.199,34.668
1641937082.104,52.734,30.762,33.203,56.641,37.109
1641937082.107,38.086,32.227,-31.250,41.992,18.555
1641937082.111,47.363,36.621,8.301,41.992,-21.973
1641937082.115,59.570,38.574,80.078,65.430,-18.066
1641937082.119,33.203,38.574,15.625,58.594,16.602
1641937082.123,8.301,33.203,-132.812,28.320,23.926
1641937082.127,17.578,32.227,-207.520,24.902,-2.441
1641937082.130,35.645,36.133,-111.328,48.828,-19.043
1641937082.134,30.273,31.250,-78.125,62.012,-1.953
1641937082.138,13.184,29.785,-491.699,48.340,-32.227
1641937082.142,33.691,45.410,-370.605,48.828,-8.789
1641937082.146,48.828,44.922,29.785,77.637,58.594
1641937082.150,29.297,36.133,5.859,89.844,48.828
1641937082.153,4.395,38.086,5.859,74.707,22.949
1641937082.157,-0.488,43.457,72.754,57.129,4.395
1641937082.161,21.973,43.945,145.996,64.941,25.879
1641937082.165,38.574,41.504,153.320,79.102,68.848
1641937082.169,29.297,36.133,170.410,58.105,89.844
1641937082.173,22.949,30.273,98.633,35.645,82.031
1641937082.176,40.039,36.621,23.926,50.293,104.492
1641937082.180,51.758,39.062,-166.992,69.336,76.172
1641937082.184,49.805,49.805,-168.945,71.777,48.828
1641937082.188,41.992,50.781,57.617,60.547,43.457
1641937082.192,49.316,37.598,6.348,57.617,10.254
1641937082.196,63.477,38.086,23.926,66.895,39.551
1641937082.212,47.852,37.598,110.840,69.824,47.363
1641937082.216,22.461,32.227,242.676,53.711,70.801
1641937082.220,15.625,25.391,189.453,33.691,104.492
1641937082.224,32.715,25.879,90.332,47.852,103.027
1641937082.228,30.273,32.227,182.129,63.965,110.352
1641937082.232,1.465,36.621,83.496,49.316,76.172
1641937082.235,-7.324,40.039,-107.910,28.320,41.016
1641937082.239,4.883,44.434,-293.457,31.738,45.410
1641937082.243,18.555,56.152,-125.000,48.828,25.391
1641937082.247,5.371,43.945,187.012,40.527,49.316
1641937082.251,-8.301,26.367,107.910,17.090,76.660
1641937082.255,15.625,29.297,77.148,20.020,58.594
1641937082.257,29.297,30.273,85.938,37.109,54.199
1641937082.261,18.066,36.133,19.531,39.062,48.340
1641937082.265,20.996,45.898,-45.898,28.320,10.742
1641937082.269,44.922,38.086,-21.973,34.180,41.992
1641937082.273,50.293,27.832,142.090,38.086,82.031
1641937082.277,31.250,16.113,15.625,30.762,47.363
1641937082.280,14.160,17.578,-114.258,22.949,9.766
1641937082.284,17.578,27.344,-1.465,14.160,14.648
1641937082.288,46.875,30.273,35.645,38.086,8.301
1641937082.292,54.199,32.715,120.605,60.059,18.555
1641937082.296,14.160,23.438,-179.688,36.621,9.277
1641937082.300,10.254,36.621,-375.000,25.391,-21.484
1641937082.287,48.828,53.223,81.543,39.551,15.625
1641937082.291,52.246,33.203,159.180,51.758,11.719
1641937082.295,25.879,26.367,7.812,38.574,-4.883
1641937082.299,13.184,40.527,-7.812,20.508,22.461
1641937082.303,29.785,47.363,86.426,28.320,30.273
1641937082.307,42.969,39.062,-3.418,47.852,35.645
1641937082.310,30.762,38.574,-48.828,51.758,43.457
1641937082.314,25.879,40.527,90.820,26.367,27.344
1641937082.318,40.039,41.992,99.121,14.160,-11.719
1641937082.322,55.176,34.180,83.496,33.203,-5.371
1641937082.326,54.199,21.484,-268.555,43.457,-15.625
1641937082.330,34.180,41.992,-183.594,30.762,-22.949
1641937082.346,24.414,52.734,166.016,10.254,13.672
1641937082.350,51.758,46.875,115.723,23.926,1.953
1641937082.354,60.059,43.945,174.316,49.316,18.066
1641937082.358,37.109,49.316,259.277,37.109,51.270
1641937082.362,24.414,53.711,170.410,16.602,37.598
1641937082.366,35.645,49.805,18.555,11.230,8.789
1641937082.369,49.316,52.246,-37.109,32.715,-7.324
1641937082.373,34.180,52.246,75.195,36.133,26.855
1641937082.377,13.184,40.527,210.449,11.719,49.805
1641937082.381,22.949,28.320,-55.664,18.066,4.883
1641937082.385,43.945,35.645,-210.449,35.645,-39.062
1641937082.389,37.598,40.039,133.301,42.969,20.508
1641937082.392,25.391,35.156,131.836,32.227,36.133
1641937082.396,38.086,41.992,70.312,25.879,44.922
1641937082.400,59.570,38.574,205.078,44.434,58.594
1641937082.404,55.176,33.691,287.598,51.270,40.527
1641937082.408,33.203,33.203,254.395,32.715,49.316
1641937082.412,31.250,31.738,-13.672,20.020,27.344
1641937082.415,54.199,37.598,-63.965,33.203,22.461
1641937082.419,62.988,36.133,221.680,49.316,97.656
1641937082.423,45.410,23.926,192.871,36.133,101.074
1641937082.427,32.715,15.625,-324.707,7.812,3.906
1641937082.431,54.688,34.180,-194.336,14.160,1.465
1641937082.435,65.430,38.574,229.492,37.598,18.066
1641937082.437,46.875,27.832,160.156,34.180,26.855
1641937082.441,34.180,31.738,86.426,15.137,18.555
1641937082.445,44.922,33.691,181.641,17.090,37.598
1641937082.449,62.012,30.762,228.516,39.551,74.219
1641937082.453,48.828,34.180,161.621,45.410,51.270
1641937082.457,21.484,38.574,24.902,23.438,-16.602
1641937082.460,15.137,39.062,-93.262,11.719,-42.969
1641937082.464,37.109,41.992,29.785,36.133,-47.852
1641937082.468,25.391,25.391,-83.496,50.781,-56.641
1641937082.472,-3.418,20.508,-154.297,33.203,-16.113
1641937082.476,6.348,32.227,181.641,23.438,19.531
1641937082.480,23.926,27.832,172.852,43.457,41.992
1641937082.482,25.879,29.297,23.438,61.035,48.340
1641937082.486,11.230,35.156,122.070,46.875,66.895
1641937082.490,-3.906,35.156,223.633,24.902,87.891
1641937082.494,11.230,28.809,103.027,23.438,58.105
1641937082.498,30.273,26.855,90.332,37.109,72.754
1641937082.502,12.695,22.461,-9.277,33.203,51.758
1641937082.505,1.953,35.645,13.672,16.602,62.500
1641937082.509,14.160,35.156,78.613,16.602,96.191
1641937082.513,27.832,23.438,-190.430,33.203,56.641
1641937082.517,34.668,39.062,0.000,42.969,70.312
1641937082.521,23.438,33.691,232.422,32.227,77.148
1641937082.525,18.555,29.785,109.375,18.066,68.359
1641937082.526,35.645,40.527,117.188,27.832,53.711
1641937082.530,42.969,44.922,261.230,35.156,30.762
1641937082.534,22.461,40.039,207.031,22.461,53.223
1641937082.538,8.301,31.250,-8.301,20.996,20.020
1641937082.542,30.273,32.715,26.367,37.598,-22.461
1641937082.546,48.828,30.273,74.707,59.082,-21.973
1641937082.549,40.039,32.715,104.980,49.805,7.324
1641937082.553,23.926,32.227,-19.043,22.949,30.273
1641937082.557,39.551,34.668,-114.746,29.785,9.766
1641937082.561,65.918,39.551,262.695,53.711,37.598
1641937082.565,48.828,27.344,283.691,54.199,42.969
1641937082.569,22.949,20.996,150.391,27.832,37.598
1641937082.571,27.344,18.066,190.430,19.531,65.430
1641937082.575,50.781,24.902,259.766,51.758,45.410
1641937082.579,42.969,19.043,210.938,60.547,20.020
1641937082.583,14.160,12.207,110.840,37.109,-5.371
1641937082.587,9.766,16.113,193.359,17.090,5.371
1641937082.591,26.367,17.578,101.562,29.297,16.113
1641937082.594,20.508,19.043,-28.320,54.199,46.875
1641937082.598,-10.742,16.113,-286.133,35.156,14.160
1641937082.602,-10.742,32.715,-187.012,11.719,-7.324
1641937082.606,22.949,37.109,217.773,22.461,3.418
1641937082.610,35.156,24.414,206.543,41.504,25.879
1641937082.614,18.555,20.996,219.238,39.062,71.289
1641937082.617,11.719,25.391,267.090,20.508,56.152
1641937082.621,29.297,35.156,264.648,26.855,25.879
1641937082.625,46.875,36.133,228.516,48.340,61.523
1641937082.629,45.410,33.691,188.965,56.641,82.031
1641937082.633,33.203,29.297,242.676,49.805,61.035
1641937082.637,31.738,20.020,181.152,41.992,72.266
1641937082.640,39.062,19.043,-120.117,48.340,41.992
1641937082.644,36.621,35.645,-232.910,49.805,27.832
1641937082.648,20.996,51.270,42.969,38.086,30.273
1641937082.652,17.090,47.852,180.664,27.832,33.203
1641937082.656,34.668,44.922,54.199,39.551,20.508
1641937082.660,41.504,48.828,97.168,44.922,17.090
1641937082.662,25.391,39.551,237.793,27.344,55.176
1641937082.666,18.066,29.785,177.246,13.672,57.617
1641937082.670,31.250,30.273,132.812,18.555,66.406
1641937082.674,42.969,33.203,209.961,36.133,38.574
1641937082.678,27.832,28.809,220.215,37.109,-11.719
1641937082.682,7.324,20.020,-0.488,12.695,-6.348
1641937082.685,7.324,22.461,-285.156,8.301,13.672
1641937082.689,18.555,40.039,-44.922,26.367,49.805
1641937082.693,6.348,36.133,263.672,21.484,94.727
1641937082.697,-18.555,21.973,144.531,-5.371,67.383
1641937082.701,-9.277,20.508,-25.879,-23.926,9.766
1641937082.705,20.020,27.344,78.125,-4.883,49.316
1641937082.707,21.973,26.855,197.754,1.953,48.340
1641937082.711,-0.488,20.996,14.160,-18.555,20.508
1641937082.715,-1.465,26.367,-29.297,-25.391,39.062
1641937082.719,23.438,24.902,139.648,-8.301,16.113
1641937082.723,37.109,15.137,158.203,18.555,-3.418
1641937082.727,15.137,12.695,39.062,16.113,-10.742
1641937082.730,-4.395,21.973,-62.500,-5.859,-0.488
1641937082.734,6.836,27.344,47.363,-7.324,1.465
1641937082.738,18.555,28.320,160.156,10.742,-19.043
1641937082.742,-2.930,18.555,-74.219,5.371,-37.109
1641937082.746,-20.020,14.648,-128.418,-12.207,-20.508
1641937082.750,1.465,17.090,205.078,0.000,15.137
1641937082.767,21.973,9.277,229.980,12.207,6.348
1641937082.771,16.113,10.254,113.770,22.461,-9.277
1641937082.775,8.789,20.020,87.402,19.043,-24.902
1641937082.779,7.812,32.227,199.219,-12.207,-24.902
1641937082.783,21.484,21.973,183.594,-9.277,-7.324
1641937082.787,36.133,14.160,-58.105,24.414,-29.785
1641937082.790,23.438,27.344,12.695,23.438,-42.480
1641937082.794,17.090,23.926,257.324,9.766,13.672
1641937082.798,36.621,7.324,159.180,12.207,85.449
1641937082.802,44.922,2.441,33.691,21.484,74.707
1641937082.806,33.203,10.742,93.262,19.531,53.223
1641937082.810,25.879,15.625,107.910,8.789,60.059
1641937082.811,35.645,11.230,-88.867,20.508,8.789
1641937082.815,54.199,9.277,-196.777,43.945,-31.250
1641937082.819,51.758,17.578,46.387,48.340,-11.719
1641937082.823,31.250,16.113,92.285,21.484,21.484
1641937082.827,41.016,16.113,-110.352,17.090,14.648
1641937082.831,60.547,23.926,-233.398,49.805,-26.367
1641937082.834,51.270,30.273,-60.059,57.129,15.625
1641937082.838,23.926,29.785,157.227,40.039,71.777
1641937082.842,19.531,19.043,-146.484,18.066,20.508
1641937082.846,43.457,30.273,-298.340,32.227,-5.859
1641937082.850,51.758,40.527,166.016,57.617,58.105
1641937082.854,30.273,20.996,190.918,36.621,63.477
1641937082.856,19.531,19.043,42.969,23.926,50.293
1641937082.860,37.109,25.391,84.961,27.344,56.152
1641937082.864,45.898,34.180,186.523,39.551,68.848
1641937082.868,26.367,37.598,157.715,37.109,97.168
1641937082.872,14.160,29.785,23.926,12.695,81.543
1641937082.876,32.715,28.320,-23.438,18.555,60.059
1641937082.879,49.316,35.645,44.922,27.344,43.457
1641937082.883,35.156,26.855,-26.367,28.320,10.254
1641937082.887,10.742,20.020,-410.645,9.766,-13.672
1641937082.891,23.438,33.203,-303.223,-0.977,2.930
1641937082.895,47.852,35.645,74.219,25.391,-0.488
1641937082.899,38.086,35.645,53.223,39.062,-4.883
1641937082.903,7.812,33.691,51.758,28.809,-10.742
1641937082.907,-3.418,24.414,115.234,16.113,-11.719
1641937082.911,15.137,29.785,114.746,25.879,24.902
1641937082.915,21.973,35.645,31.738,41.992,16.113
1641937082.919,2.930,32.715,24.902,31.250,6.836
1641937082.923,0.000,29.785,2.441,20.508,33.691
1641937082.926,21.973,34.668,-65.430,29.785,23.438
1641937082.930,29.297,34.180,-242.676,48.828,-15.137
1641937082.934,22.949,36.621,-250.488,45.410,-4.883
1641937082.938,24.902,43.457,65.918,33.203,36.133
1641937082.942,41.504,33.691,17.578,48.340,53.223
1641937082.946,60.547,31.738,-48.340,75.195,32.227
1641937082.962,43.945,33.691,81.055,82.031,39.551
1641937082.966,11.230,30.273,175.781,62.012,64.941
1641937082.970,3.906,20.996,50.781,44.434,44.922
1641937082.974,23.926,22.949,-27.344,56.152,17.090
1641937082.978,39.062,28.809,147.949,61.035,35.645
1641937082.982,32.715,18.555,51.758,29.297,26.855
1641937082.985,29.785,19.043,-125.000,9.766,-1.465
1641937082.989,39.551,21.973,-263.672,23.438,-27.832
1641937082.993,38.086,32.227,-98.145,51.270,16.113
1641937082.997,18.066,37.109,250.977,55.664,50.293
1641937083.001,11.719,33.691,131.348,35.156,27.344
1641937083.005,22.461,37.109,99.121,38.086,33.203
1641937082.992,36.621,38.574,170.410,57.129,53.711
1641937082.996,20.508,34.180,152.832,53.223,62.500
1641937083.000,-1.953,28.809,64.941,35.156,52.734
1641937083.004,6.348,33.691,33.203,31.250,41.016
1641937083.008,22.949,38.086,219.238,53.223,35.156
1641937083.012,16.113,24.414,110.352,66.895,22.949
1641937083.015,-1.465,27.832,-56.152,49.805,16.113
1641937083.019,7.324,41.504,91.309,39.062,44.434
1641937083.023,34.668,41.016,219.238,43.945,63.477
1641937083.027,39.551,30.762,215.820,48.340,76.660
1641937083.031,15.625,25.391,-11.230,28.320,38.574
1641937083.035,17.090,39.551,-60.547,8.789,18.555
1641937083.052,43.457,41.504,166.992,18.066,20.508
1641937083.056,55.664,35.645,161.621,37.598,0.488
1641937083.060,37.109,40.527,61.035,25.879,-0.977
1641937083.064,31.738,39.551,18.066,8.789,5.371
1641937083.068,52.246,29.297,31.738,15.625,12.695
1641937083.072,62.500,25.391,26.855,28.809,16.113
1641937083.075,49.805,25.879,-255.371,35.645,0.977
1641937083.079,31.250,34.668,-186.523,8.789,13.672
1641937083.083,40.039,37.109,179.688,-1.953,42.480
1641937083.087,52.246,35.156,149.414,26.367,40.527
1641937083.091,36.133,36.621,160.645,37.109,49.316
1641937083.095,17.090,30.762,231.445,22.949,58.105
1641937083.097,21.484,23.926,229.004,12.207,74.707
1641937083.101,39.062,18.066,104.980,26.855,54.688
1641937083.105,34.668,21.484,113.281,47.363,36.133
1641937083.109,15.625,28.320,219.238,36.133,7.324
1641937083.113,8.301,24.414,134.277,20.996,0.000
1641937083.117,16.602,24.902,30.762,24.902,24.414
1641937083.120,28.809,24.414,-64.453,40.527,8.789
1641937083.124,16.602,20.508,42.969,46.387,57.129
1641937083.128,9.277,17.090,189.941,25.879,32.715
1641937083.132,18.066,7.324,-110.352,22.949,-20.996
1641937083.136,28.320,16.113,-240.234,33.691,33.203
1641937083.140,30.273,30.273,162.598,34.668,22.461
1641937083.141,15.625,20.996,236.328,28.320,21.484
1641937083.145,24.414,13.672,88.867,17.578,6.836
1641937083.149,50.781,18.555,136.719,35.645,-25.391
1641937083.153,48.828,23.926,187.988,43.945,-18.066
1641937083.157,22.461,26.367,141.113,20.996,-20.020
1641937083.161,19.043,30.762,9.766,12.207,-1.465
1641937083.164,49.805,38.574,6.348,32.227,-1.465
1641937083.168,61.035,36.133,147.461,57.129,5.859
1641937083.172,20.020,24.902,118.164,36.133,21.484
1641937083.176,-15.625,17.578,-315.918,-8.301,-2.930
1641937083.180,0.488,27.832,-210.938,-1.465,19.531
1641937083.184,33.691,28.809,194.824,32.227,58.594
1641937083.186,30.273,16.602,129.395,41.504,57.129
1641937083.190,15.137,11.719,20.020,17.578,26.855
1641937083.194,29.785,17.090,86.426,18.066,33.691
1641937083.198,41.992,20.508,176.270,37.109,51.270
1641937083.202,28.320,25.391,106.445,36.133,60.547
1641937083.206,15.137,24.414,-46.387,21.484,59.082
1641937083.209,29.785,14.648,-125.000,11.719,32.715
1641937083.213,51.758,15.137,85.449,33.691,73.242
1641937083.217,42.969,8.789,-32.227,52.734,80.078
1641937083.221,21.973,14.160,-210.938,38.086,66.895
1641937083.225,28.809,26.367,56.641,29.297,63.477
1641937083.229,39.551,23.926,19.043,41.992,40.527
1641937083.231,42.480,28.320,-104.980,54.199,37.598
1641937083.235,29.297,40.039,14.160,42.480,30.762
1641937083.239,16.113,41.992,126.465,22.461,81.055
1641937083.243,33.203,30.762,19.531,25.391,61.035
1641937083.247,53.223,31.250,50.781,43.945,68.359
1641937083.251,38.574,36.621,18.555,42.969,86.426
1641937083.254,17.578,45.410,-4.395,20.020,101.074
1641937083.258,24.414,40.527,10.742,16.602,97.656
1641937083.262,38.086,26.367,-290.527,29.785,1.953
1641937083.266,39.551,31.738,-135.254,33.691,12.695
1641937083.270,18.555,28.320,139.648,23.926,57.129
1641937083.274,12.207,26.367,53.223,11.230,42.969
1641937083.276,36.621,36.621,59.570,31.738,59.082
1641937083.280,44.434,44.434,160.645,51.758,92.773
1641937083.284,24.902,27.832,24.902,32.715,48.340
1641937083.288,23.926,18.066,-211.914,20.020,9.277
1641937083.292,46.875,31.738,-112.793,33.691,36.133
1641937083.296,51.270,33.691,-13.184,47.363,19.531
1641937083.299,31.250,36.621,-14.160,33.691,-6.348
1641937083.303,15.137,29.785,-200.684,16.602,-37.109
1641937083.307,28.320,27.344,-302.734,20.508,-55.176
1641937083.311,45.898,37.598,3.418,37.598,-21.484
1641937083.315,36.133,35.645,55.664,43.945,-0.488
1641937083.319,24.902,34.668,-3.906,23.438,0.488
1641937083.321,35.156,35.156,29.297,15.625,16.113
1641937083.325,42.969,36.133,134.766,33.203,38.574
1641937083.329,36.621,27.344,38.574,45.898,-3.906
1641937083.333,23.438,23.926,-33.691,36.133,-38.086
1641937083.337,27.344,31.250,63.477,24.414,26.855
1641937083.341,48.340,24.414,-24.902,37.109,35.645
1641937083.344,55.176,17.090,-125.000,56.152,0.977
1641937083.348,30.762,12.207,-412.109,37.598,-4.395
1641937083.352,20.996,27.344,-337.402,15.625,1.953
1641937083.356,41.016,37.109,99.121,26.855,51.270
1641937083.360,47.363,30.762,95.215,46.387,32.715
1641937083.364,28.809,38.086,89.355,42.969,51.270
1641937083.367,14.160,42.969,142.578,21.973,77.637
1641937083.371,24.414,40.527,108.398,24.414,51.758
1641937083.375,37.598,38.574,30.762,33.691,37.598
1641937083.379,30.273,40.527,47.363,39.551,26.367
1641937083.383,10.742,38.574,114.746,31.738,32.715
1641937083.387,17.090,34.668,-0.488,17.090,61.035
1641937083.390,33.691,31.250,-242.188,28.320,53.223
1641937083.394,26.855,31.738,-234.375,31.738,69.824
1641937083.398,10.742,43.945,38.574,11.719,112.305
1641937083.402,12.207,48.340,115.723,10.742,65.430
1641937083.406,33.691,45.410,14.648,31.738,19.043
1641937083.410,39.062,44.434,56.152,43.945,26.855
1641937083.411,22.949,36.621,243.652,28.809,67.871
1641937083.415,12.695,22.461,124.512,13.184,41.992
1641937083.419,31.738,23.438,-15.137,31.738,12.695
1641937083.423,49.805,31.738,112.793,50.293,53.223
1641937083.427,38.574,32.227,176.758,40.527,53.711
1641937083.431,28.320,31.250,-26.367,18.066,24.902
1641937083.434,39.062,33.691,-330.078,9.766,21.973
1641937083.438,61.035,47.363,-100.586,26.855,46.387
1641937083.442,54.688,47.363,174.316,35.645,24.414
1641937083.446,35.156,39.062,34.180,23.926,25.391
1641937083.450,43.457,39.062,2.441,20.508,45.898
1641937083.454,59.082,41.504,37.109,34.180,14.648
1641937083.457,48.340,44.434,150.879,31.738,62.012
1641937083.461,15.625,43.457,43.457,13.672,50.781
1641937083.465,17.090,48.340,-58.594,17.578,27.832
1641937083.469,47.363,51.758,157.715,35.156,45.898
1641937083.473,38.574,46.387,197.754,43.457,22.461
1641937083.477,12.207,39.551,37.109,30.273,10.254
1641937083.480,6.348,42.480,-56.152,13.184,3.906
1641937083.484,22.949,45.410,99.609,19.043,35.645
1641937083.488,34.668,38.086,214.844,41.016,68.359
1641937083.492,18.066,32.227,-35.645,43.457,45.410
1641937083.496,0.977,36.621,-104.492,14.648,16.113
1641937083.500,23.926,40.039,180.176,13.184,11.719
1641937083.532,53.223,39.062,244.141,41.016,44.922
1641937083.536,40.039,30.762,56.641,42.969,15.625
1641937083.540,20.508,36.133,2.930,33.203,-9.766
1641937083.544,25.391,44.434,180.176,28.809,39.551
1641937083.548,41.504,36.133,131.348,42.480,13.184
1641937083.552,41.016,35.156,-289.551,56.641,-41.016
1641937083.555,35.645,57.129,-243.164,40.039,-36.621
1641937083.559,41.992,60.547,151.367,25.391,-15.625
1641937083.563,49.805,44.922,33.203,37.109,-19.531
1641937083.567,51.758,44.922,-46.875,53.711,-28.320
1641937083.571,33.203,43.457,151.367,50.781,28.809
1641937083.575,13.184,33.691,213.867,27.344,68.359
1641937083.561,27.832,28.809,143.555,22.949,48.340
1641937083.565,52.246,31.738,115.723,39.551,15.137
1641937083.569,48.828,28.809,184.082,38.086,32.715
1641937083.573,36.621,21.484,187.500,17.090,56.641
1641937083.577,39.551,22.461,58.105,13.184,54.199
1641937083.581,46.387,27.832,-19.043,42.480,51.270
1641937083.584,32.227,31.738,96.191,52.246,72.266
1641937083.588,-1.465,27.832,218.750,27.344,110.840
1641937083.592,-6.836,22.461,44.922,4.395,68.848
1641937083.596,19.531,32.227,-1.465,10.742,24.414
1641937083.600,20.020,35.645,166.504,16.113,19.043
1641937083.604,-6.348,26.367,170.410,-10.254,-12.207
1641937083.606,-2.930,16.113,-178.711,-15.625,-33.691
1641937083.610,21.973,41.016,-292.480,-8.789,-52.246
1641937083.614,11.230,59.570,72.754,-35.156,-80.566
1641937083.618,-19.531,41.992,131.348,-49.805,-37.598
1641937083.622,-22.461,38.574,96.191,-47.363,-20.996
1641937083.626,-4.395,42.969,35.156,-32.715,-33.691
1641937083.629,-5.859,50.781,-40.527,-24.902,-29.785
1641937083.633,-27.344,46.875,9.277,-27.832,-3.418
1641937083.637,-51.270,43.945,-279.785,-34.668,9.766
1641937083.641,-37.109,66.895,-157.227,-37.109,22.461
1641937083.645,-18.066,63.965,240.723,-16.113,29.297
1641937083.649,-35.645,47.363,131.836,-15.625,35.156
1641937083.652,-46.875,46.875,84.961,-30.273,0.977
1641937083.656,-32.715,47.363,188.965,-25.879,-1.465
1641937083.660,-3.418,45.898,186.035,-12.207,-10.742
1641937083.664,5.371,43.945,103.516,1.465,-63.477
1641937083.668,-5.859,47.852,156.738,-2.930,-17.578
1641937083.672,2.441,44.922,137.695,-14.648,21.973
1641937083.675,18.555,37.598,-36.621,-1.953,3.418
1641937083.679,30.762,39.551,-14.160,23.438,37.109
1641937083.683,21.484,45.898,169.922,20.508,75.195
1641937083.687,13.672,45.898,226.074,-6.836,47.852
1641937083.691,31.250,33.691,95.215,-8.301,37.598
1641937083.695,35.645,22.461,-215.332,21.484,-5.371
1641937083.697,24.414,33.691,-251.465,28.809,-1.465
1641937083.701,3.906,38.574,111.328,13.184,22.949
1641937083.705,0.977,20.996,82.520,2.930,-4.395
1641937083.709,26.367,23.926,-16.113,20.996,28.320
1641937083.713,31.250,37.109,63.965,42.969,14.160
1641937083.717,3.906,35.645,-52.246,24.902,-11.719
1641937083.720,-6.348,29.297,-227.051,8.789,-32.715
1641937083.724,10.742,30.762,-312.988,21.484,1.953
1641937083.728,23.926,41.992,-103.516,39.551,62.012
1641937083.732,11.230,39.551,136.230,37.109,42.969
1641937083.736,-3.418,31.250,42.969,17.578,19.531
1641937083.740,15.137,38.574,-12.695,21.484,-27.832
1641937083.743,30.273,43.457,68.848,39.062,-23.926
1641937083.747,19.531,39.062,76.660,40.527,3.418
1641937083.751,2.930,36.133,-18.066,20.996,20.996
1641937083.755,11.719,38.574,-10.742,16.113,62.500
1641937083.759,34.180,35.645,154.297,36.621,60.547
1641937083.763,31.250,24.414,56.641,37.109,9.766
1641937083.766,6.348,19.043,-237.793,18.555,-17.578
1641937083.770,10.254,27.832,-408.203,10.742,-49.805
1641937083.774,42.480,44.922,-88.867,30.273,-28.320
1641937083.778,33.691,37.598,126.953,41.016,34.668
1641937083.782,6.348,31.738,52.246,17.090,69.336
1641937083.786,4.883,32.227,29.297,-1.953,41.016
1641937083.787,27.344,32.715,96.191,12.695,20.996
1641937083.791,38.086,36.133,85.449,39.551,66.406
1641937083.795,17.090,37.109,-153.320,30.273,60.059
1641937083.799,6.348,38.574,-301.758,1.953,37.109
1641937083.803,19.043,37.598,-256.836,7.812,46.387
1641937083.807,21.973,28.809,-311.523,34.668,13.184
1641937083.810,0.977,29.785,-661.621,41.016,-34.668
1641937083.814,-6.348,50.781,-549.805,27.344,-30.273
1641937083.818,13.184,54.688,-123.535,29.297,11.719
1641937083.822,34.180,45.898,-102.539,55.176,27.344
1641937083.826,25.391,46.875,-144.043,65.918,-2.441
1641937083.830,1.953,42.480,16.602,55.664,23.438
1641937083.847,-4.883,29.785,8.301,38.574,39.551
1641937083.851,4.883,25.391,-155.762,37.109,3.906
1641937083.855,11.719,38.086,-20.020,41.504,78.125
1641937083.859,4.883,40.527,103.027,17.090,91.309
1641937083.863,12.695,35.156,49.805,-2.441,48.340
1641937083.867,40.527,36.133,-129.395,13.184,-15.625
1641937083.870,55.176,37.598,-188.965,44.922,-27.832
1641937083.874,45.410,34.668,-186.035,62.500,-9.766
1641937083.878,30.273,44.434,-94.238,41.016,5.859
1641937083.882,29.297,43.457,-264.648,21.973,-43.945
1641937083.886,59.082,45.898,-347.168,47.363,-58.594
1641937083.890,70.801,59.570,110.352,66.895,33.691
1641937083.892,45.410,50.293,114.258,47.363,-4.395
1641937083.896,44.922,49.316,-13.184,35.645,-57.617
1641937083.900,50.293,50.293,125.488,54.688,-21.484
1641937083.904,31.250,42.480,158.203,58.105,-0.488
1641937083.908,3.418,39.062,51.270,36.133,3.418
1641937083.912,0.488,35.645,-122.070,26.855,-9.766
1641937083.915,22.949,43.457,-164.551,40.039,-30.762
1641937083.919,37.598,51.270,93.750,56.152,16.602
1641937083.923,26.367,41.016,107.910,35.645,34.180
1641937083.927,4.395,29.785,-360.352,11.719,2.441
1641937083.931,24.902,39.062,-270.020,26.367,-5.859
1641937083.935,46.875,40.527,90.820,39.551,-28.320
1641937083.937,32.227,32.715,18.066,37.109,-46.875
1641937083.941,21.973,32.715,-0.488,16.602,-35.156
1641937083.945,41.016,41.504,53.711,18.066,-76.660
1641937083.949,65.918,56.152,106.445,43.457,-61.523
1641937083.953,59.082,54.688,77.148,42.480,20.508
1641937083.957,36.133,47.363,-82.031,22.461,40.527
1641937083.960,36.621,51.758,-155.762,8.301,32.715
1641937083.964,59.082,63.965,33.691,25.391,60.059
1641937083.968,53.223,50.293,-112.793,41.504,26.367
1641937083.972,25.879,45.410,-274.902,25.391,0.000
1641937083.976,21.484,64.453,121.582,15.625,64.453
1641937083.980,33.203,56.641,183.105,24.414,38.086
1641937083.982,42.969,52.246,24.902,40.039,-19.043
1641937083.986,26.855,54.199,46.875,43.457,-45.410
1641937083.990,18.555,48.340,138.672,31.738,-25.879
1641937083.994,40.039,43.457,76.172,42.969,-6.836
1641937083.998,45.410,46.387,43.945,45.898,-21.484
1641937084.002,13.672,47.363,42.480,25.391,-27.832
1641937084.005,-2.930,46.387,33.691,10.254,-35.156
1641937084.009,9.277,43.945,-23.438,11.230,-79.102
1641937084.013,23.926,41.016,-277.344,28.320,-93.750
1641937084.017,24.414,49.316,-80.566,32.227,-36.133
1641937084.021,14.160,42.969,199.707,24.414,13.184
1641937084.025,22.949,41.016,97.656,20.996,34.180
1641937084.027,36.621,46.387,107.910,34.180,46.387
1641937084.031,40.527,50.293,200.684,51.758,30.273
1641937084.035,19.043,40.527,139.648,34.668,43.457
1641937084.039,7.812,33.691,-144.043,18.066,39.551
1641937084.043,28.809,40.527,-112.793,34.180,27.832
1641937084.047,29.785,40.527,47.363,46.875,46.875
1641937084.050,11.719,48.340,72.266,33.203,46.875
1641937084.054,-5.371,40.039,-145.020,2.930,-3.906
1641937084.058,6.836,41.992,-284.668,0.977,-25.391
1641937084.062,32.715,50.293,83.984,27.344,26.367
1641937084.066,23.438,40.527,137.207,28.320,-7.324
1641937084.070,10.254,43.945,-3.906,5.371,-34.180
1641937084.071,24.414,50.293,87.891,5.371,32.715
1641937084.075,44.434,50.781,175.781,23.926,43.945
1641937084.079,43.945,48.828,141.602,29.785,13.184
1641937084.083,23.926,44.922,59.082,10.742,5.371
1641937084.087,28.809,47.852,58.105,0.000,25.391
1641937084.091,53.223,45.410,-13.184,20.020,40.039
1641937084.094,47.852,36.621,-141.113,39.551,16.113
1641937084.098,20.508,23.438,-386.230,25.391,12.695
1641937084.102,27.832,34.180,-288.086,7.324,10.254
1641937084.106,49.805,40.039,109.863,20.020,26.855
1641937084.110,49.805,33.691,48.828,38.574,17.578
1641937084.114,38.086,40.039,-18.066,36.133,-4.395
1641937084.117,30.273,41.016,75.195,17.578,-21.973
1641937084.121,45.898,45.898,137.695,21.484,-38.574
1641937084.125,54.688,42.480,71.777,38.574,-42.969
1641937084.129,41.992,36.133,74.707,34.180,-31.738
1641937084.133,27.832,34.668,181.152,18.066,-39.062
1641937084.137,27.344,29.297,62.500,6.836,-60.059
1641937084.140,38.574,24.414,-215.820,21.484,-46.875
1641937084.144,39.062,32.227,-206.543,36.621,-26.367
1641937084.148,24.414,42.969,42.480,32.227,-2.930
1641937084.152,28.809,40.039,50.293,29.785,-22.461
1641937084.156,50.293,40.039,11.719,53.223,7.324
1641937084.160,52.734,40.039,121.582,71.777,48.340
1641937084.162,18.555,37.598,217.285,40.527,35.645
1641937084.166,-1.465,40.527,224.609,5.859,18.555
1641937084.170,16.113,35.645,256.348,-3.418,1.465
1641937084.174,22.461,43.945,403.809,-2.930,11.230
1641937084.178,7.324,57.129,577.148,6.348,41.016
1641937084.182,-2.441,47.363,543.945,-8.789,37.598
1641937084.185,4.395,46.875,338.867,-26.855,-38.574
1641937084.189,25.879,66.406,610.840,-7.324,-38.574
1641937084.193,20.508,61.035,991.699,-0.977,3.906
1641937084.197,12.207,62.500,922.363,4.883,24.902
1641937084.201,36.621,83.984,847.168,12.207,-2.930
1641937084.205,56.152,90.820,892.090,28.809,-31.738
1641937084.207,53.711,91.309,996.094,57.129,11.230
1641937084.211,24.414,84.473,918.945,43.457,-17.090
1641937084.215,30.273,96.680,890.137,34.668,-53.223
1641937084.219,61.523,119.629,-990.234,52.734,-31.738
1641937084.223,63.965,111.816,-990.723,76.660,-37.598
1641937084.227,22.461,93.750,941.895,59.570,-29.785
1641937084.230,-11.719,97.656,916.504,18.555,-6.836
1641937084.234,4.395,106.934,992.188,20.020,1.465
1641937084.238,1.953,110.352,-973.633,19.531,40.527
1641937084.242,-41.016,111.328,763.184,-9.766,34.668
1641937084.246,-71.289,119.141,555.176,-40.527,-41.992
1641937084.250,-76.172,120.117,590.332,-57.617,-50.293
1641937084.268,-72.266,118.164,530.273,-55.664,-30.273
1641937084.272,-91.309,109.863,367.188,-82.031,-4.395
1641937084.276,-113.281,103.027,184.570,-122.070,14.648
1641937084.280,-111.816,107.422,134.766,-134.277,30.762
1641937084.284,-105.957,93.262,14.160,-122.070,78.613
1641937084.288,-113.770,70.312,-488.281,-108.887,29.297
1641937084.291,-128.418,72.266,-669.434,-126.465,-0.977
1641937084.295,-119.141,69.824,-461.914,-133.789,5.859
1641937084.299,-92.773,50.781,-604.492,-108.887,-17.578
1641937084.303,-89.844,43.457,-692.383,-89.844,-32.715
1641937084.307,-105.957,41.016,-629.395,-89.355,-25.391
1641937084.311,-103.027,27.832,-639.160,-99.121,4.883
1641937084.312,-65.430,13.672,-784.180,-85.938,3.418
1641937084.316,-39.062,9.766,-788.574,-55.664,16.113
1641937084.320,-32.715,7.324,-639.648,-38.086,25.391
1641937084.324,-35.156,-11.230,-645.508,-41.504,9.766
1641937084.328,-20.996,-19.531,-743.164,-40.039,-1.953
1641937084.332,15.137,-14.648,-779.297,-3.906,40.039
1641937084.335,19.531,-12.695,-703.125,20.020,61.035
1641937084.339,10.742,-9.766,-513.672,8.789,68.848
1641937084.343,16.602,-17.090,-690.918,3.906,42.480
1641937084.347,34.668,-12.207,-922.363,21.484,-27.344
1641937084.351,49.805,6.836,-586.914,47.363,13.672
1641937084.355,33.691,4.883,-391.113,42.480,80.566
1641937084.356,26.367,4.883,-446.289,24.902,86.426
1641937084.360,52.246,12.695,-387.695,42.480,91.797
1641937084.364,65.430,10.742,-271.973,61.523,82.520
1641937084.368,41.992,3.906,-341.309,56.152,32.227
1641937084.372,33.691,2.441,-401.367,47.852,26.367
1641937084.376,62.500,4.883,-481.445,54.199,3.418
1641937084.379,86.914,10.742,-423.828,69.824,7.324
1641937084.383,82.520,6.836,-315.918,75.195,40.039
1641937084.387,63.965,0.000,-672.363,56.641,9.277
1641937084.391,82.031,16.113,-604.492,51.270,8.789
1641937084.395,112.305,22.949,-156.738,78.613,34.180
1641937084.399,105.957,18.066,-112.305,89.355,36.621
1641937084.402,84.473,15.137,-113.281,76.172,38.574
1641937084.406,81.055,14.648,-90.820,73.730,10.254
1641937084.410,96.191,15.137,-89.355,85.449,10.254
1641937084.414,100.586,13.672,-81.543,104.980,41.016
1641937084.418,83.984,15.137,-60.547,102.539,76.172
1641937084.422,68.359,12.695,-175.781,86.426,41.992
1641937084.425,85.449,17.090,-156.250,103.516,-18.555
1641937084.429,90.332,7.812,-246.582,126.465,-40.527
1641937084.433,69.824,8.789,-332.031,118.652,-34.668
1641937084.437,65.918,22.461,27.344,88.867,24.414
1641937084.441,76.172,19.531,-5.371,83.008,41.016
1641937084.445,95.215,26.855,-183.594,103.027,-8.789
1641937084.447,86.426,33.691,-33.203,101.562,8.789
1641937084.451,62.988,29.297,121.094,76.660,36.133
1641937084.455,62.988,20.508,29.785,62.988,-5.371
1641937084.459,80.566,20.508,-18.066,85.449,-0.977
1641937084.463,81.055,35.156,134.766,100.098,46.387
1641937084.467,52.246,31.738,48.340,79.102,28.809
1641937084.470,48.340,18.066,-161.621,74.707,-29.297
1641937084.474,71.289,20.020,-355.469,81.055,-35.645
1641937084.478,82.520,33.203,-181.152,97.656,1.953
1641937084.482,75.195,29.785,72.754,98.145,21.973
1641937084.486,63.965,17.578,-18.555,72.754,10.254
1641937084.490,74.707,23.438,-59.082,77.148,36.621
1641937084.493,93.750,34.180,71.289,89.844,40.527
1641937084.497,76.172,31.250,120.117,80.566,49.805
1641937084.501,54.688,31.250,-49.805,62.500,36.133
1641937084.505,76.660,41.992,-146.973,62.012,-26.855
1641937084.509,99.609,51.270,20.996,83.008,8.789
1641937084.513,73.242,43.457,18.066,89.844,48.340
1641937084.516,46.387,32.715,-253.906,72.266,22.949
1641937084.520,64.941,46.387,-334.961,71.289,12.695
1641937084.524,85.938,63.965,-23.926,80.566,29.785
1641937084.528,57.617,53.711,66.895,65.430,37.598
1641937084.532,21.973,42.480,-39.551,26.855,30.762
1641937084.536,17.090,42.969,-6.348,6.348,15.625
1641937084.536,29.297,38.574,130.371,17.090,46.387
1641937084.540,31.738,31.738,49.805,29.785,49.316
1641937084.544,17.090,29.297,-15.625,20.996,40.527
1641937084.548,5.859,30.273,10.742,-5.859,49.805
1641937084.552,15.625,33.203,-71.289,-1.465,33.203
1641937084.556,35.645,34.180,-103.027,32.715,37.109
1641937084.559,18.555,27.344,-349.121,35.156,46.387
1641937084.563,0.977,41.504,-308.594,11.719,27.832
1641937084.567,20.020,52.246,59.082,16.113,2.930
1641937084.571,34.180,44.922,40.039,47.852,7.324
1641937084.575,19.043,44.434,35.645,55.664,0.000
1641937084.579,-9.766,46.875,154.785,34.180,-8.789
1641937084.597,-6.836,50.781,239.746,23.438,37.598
1641937084.601,12.695,50.293,178.711,37.598,18.555
1641937084.605,14.160,43.457,138.672,51.758,-44.922
1641937084.609,3.418,41.504,208.008,41.992,-20.020
1641937084.613,6.836,34.180,226.562,26.855,-6.836
1641937084.617,18.555,12.207,-86.914,32.715,-24.414
1641937084.620,28.320,18.555,-284.180,44.434,-17.578
1641937084.624,23.926,39.551,2.930,41.992,33.203
1641937084.628,17.090,35.156,101.074,21.973,35.156
1641937084.632,29.785,25.879,-211.914,20.020,20.020
1641937084.636,45.898,33.203,-231.934,41.016,24.902
1641937084.640,41.992,41.992,77.148,41.992,24.902
1641937084.642,33.203,36.621,6.836,28.320,-6.348
1641937084.646,51.758,35.645,-163.086,26.855,-7.324
1641937084.650,65.918,44.922,-55.664,50.781,36.133
1641937084.654,48.828,45.410,67.871,55.664,39.551
1641937084.658,27.344,36.133,-83.984,42.969,41.016
1641937084.662,27.832,35.156,-259.277,51.270,36.621
1641937084.665,43.457,41.016,-300.293,40.039,41.504
1641937084.669,38.574,45.410,-118.652,55.664,50.781
1641937084.673,13.184,39.062,-64.941,45.410,28.809
1641937084.677,2.930,29.297,-502.930,16.602,6.836
1641937084.681,34.668,47.363,-413.086,38.574,17.090
1641937084.685,54.199,56.152,32.227,63.477,28.809
1641937084.686,21.484,48.340,-44.434,50.781,36.133
1641937084.690,8.301,53.223,-75.684,12.695,76.172
1641937084.694,31.250,49.805,17.578,16.602,40.527
1641937084.698,42.480,43.457,93.262,45.898,3.418
1641937084.702,30.273,44.922,36.133,42.969,14.160
1641937084.706,16.602,40.527,-111.816,19.531,33.203
1641937084.709,29.297,42.969,-137.695,14.648,32.715
1641937084.713,56.152,52.734,0.977,36.133,31.738
1641937084.717,46.875,49.316,-127.930,54.688,3.906
1641937084.721,22.461,50.293,-272.949,39.551,-19.043
1641937084.725,39.062,55.176,-3.906,21.973,22.949
1641937084.729,63.477,43.945,47.852,37.109,50.293
1641937084.732,57.617,40.527,-0.977,61.035,51.758
1641937084.736,38.574,47.363,100.098,61.523,47.852
1641937084.740,28.809,52.246,176.270,38.086,27.344
1641937084.744,43.945,56.641,63.477,43.457,10.742
1641937084.748,46.387,57.617,-106.445,53.223,-3.906
1641937084.752,23.926,56.152,-165.039,43.945,-0.488
1641937084.755,16.602,54.688,-49.316,32.715,58.594
1641937084.759,30.762,39.551,24.414,26.367,81.055
1641937084.763,50.293,29.297,-171.875,47.852,54.688
1641937084.767,47.363,43.457,-19.043,62.012,77.637
1641937084.771,16.602,41.504,188.477,43.457,83.984
1641937084.775,8.301,37.109,45.410,41.504,49.316
1641937084.776,20.020,43.457,56.152,55.664,56.152
1641937084.780,14.160,48.340,235.352,57.129,64.453
1641937084.784,-0.488,42.480,227.051,34.180,36.621
1641937084.788,8.301,33.203,-43.457,15.137,64.453
1641937084.792,38.086,40.039,-62.500,33.691,80.078
1641937084.796,47.363,45.898,88.867,55.664,53.711
1641937084.799,23.438,42.969,22.949,51.758,55.176
1641937084.803,5.859,40.039,-222.656,26.855,11.719
1641937084.807,24.902,47.852,-267.090,29.785,-37.598
1641937084.811,48.828,62.500,157.715,52.246,8.789
1641937084.815,35.645,59.082,294.922,45.410,50.781
1641937084.819,23.438,52.734,142.578,16.602,46.387
1641937084.822,33.691,54.199,118.164,17.090,42.480
1641937084.826,43.945,55.176,272.949,51.270,60.059
1641937084.830,37.598,42.969,222.168,62.012,77.148
1641937084.834,19.043,36.621,83.008,38.574,70.312
1641937084.838,22.461,42.480,116.699,25.879,72.754
1641937084.842,42.969,43.457,55.176,40.527,77.637
1641937084.845,35.156,40.527,-41.992,49.316,72.754
1641937084.849,13.672,42.969,-98.633,37.109,73.730
1641937084.853,13.672,54.199,29.785,24.902,44.434
1641937084.857,32.715,48.828,180.664,32.715,3.906
1641937084.861,35.156,38.086,18.066,42.480,-45.410
1641937084.865,20.996,46.387,-28.809,40.527,-21.973
1641937084.867,15.625,57.129,125.488,21.484,52.734
1641937084.871,31.250,56.641,114.258,14.648,6.836
1641937084.875,44.434,42.969,-81.055,29.297,-52.734
1641937084.879,29.297,42.969,-287.109,24.902,-33.691
1641937084.883,18.555,61.523,-105.957,7.812,-4.883
1641937084.887,30.762,62.988,-15.625,13.184,3.906
1641937084.890,50.293,62.012,-197.266,39.062,-21.973
1641937084.894,50.293,68.359,-198.242,47.363,-33.203
1641937084.898,33.691,67.383,57.617,36.621,47.363
1641937084.902,31.250,56.152,52.734,24.902,49.316
1641937084.906,48.828,58.594,-0.488,36.621,5.859
1641937084.910,49.316,51.270,28.320,54.199,17.578
1641937084.912,24.414,48.340,168.457,36.621,40.039
1641937084.916,14.160,53.223,159.668,19.043,50.293
1641937084.920,34.668,57.617,79.102,27.832,54.688
1641937084.924,45.898,59.082,147.949,36.621,69.824
1641937084.928,25.391,56.152,205.078,28.320,73.730
1641937084.932,3.906,47.363,18.066,8.301,73.730
1641937084.935,20.020,46.387,-266.602,5.859,47.363
1641937084.939,46.387,56.641,-106.934,27.832,74.707
1641937084.943,27.344,52.734,147.949,27.344,80.566
1641937084.947,1.953,44.922,90.820,2.441,56.641
1641937084.951,10.254,40.527,46.387,-8.301,43.457
1641937084.955,32.715,43.457,38.086,13.672,42.969
1641937084.957,42.969,45.410,114.258,39.062,48.340
1641937084.961,27.832,36.621,-12.695,20.508,16.113
1641937084.965,23.926,41.992,-105.469,-3.418,18.066
1641937084.969,47.363,39.062,139.160,7.812,57.617
1641937084.973,56.641,29.785,184.082,29.785,33.691
1641937084.977,31.738,22.461,-134.766,24.414,4.883
1641937084.980,11.719,28.809,-272.949,-2.441,50.781
1641937084.984,34.668,44.922,56.641,13.184,59.570
1641937084.988,44.434,43.457,146.973,34.180,34.180
1641937084.992,22.949,47.363,62.988,28.320,55.176
1641937084.996,10.254,51.758,16.602,13.672,42.480
1641937085.000,25.391,54.199,69.824,11.719,7.812
1641937085.017,43.457,46.387,17.090,41.504,-14.160
1641937085.021,37.109,50.293,-8.301,48.828,19.531
1641937085.025,27.344,60.059,55.664,34.668,84.473
1641937085.029,36.621,57.129,54.688,30.762,41.504
1641937085.033,49.805,48.828,88.379,42.969,49.316
1641937085.037,40.039,35.156,-236.816,56.641,51.270
1641937085.040,29.297,36.621,-278.809,36.621,29.785
1641937085.044,35.156,43.945,117.676,22.461,48.340
1641937085.048,48.828,39.551,10.254,41.504,37.109
1641937085.052,56.152,45.410,-34.668,60.059,52.734
1641937085.056,38.086,51.758,154.785,47.852,76.172
1641937085.060,23.438,46.387,158.691,16.113,59.082
1641937085.062,40.039,45.898,68.848,17.090,57.617
1641937085.066,58.105,54.688,45.898,44.922,95.703
1641937085.070,44.922,57.617,100.586,43.945,62.988
1641937085.074,24.414,53.711,132.324,26.855,35.645
1641937085.078,26.855,52.246,39.062,18.555,45.898
1641937085.082,40.527,53.711,-124.512,30.273,51.270
1641937085.085,42.969,62.988,-69.824,45.898,92.285
1641937085.089,24.414,65.430,92.285,34.668,105.469
1641937085.093,14.648,41.504,-107.422,24.414,54.199
1641937085.097,29.297,37.598,-375.977,34.668,-23.926
1641937085.101,38.086,60.547,23.438,55.664,38.574
1641937085.105,16.602,57.129,195.312,41.992,75.684
1641937085.106,6.348,52.246,14.160,13.184,5.859
1641937085.110,25.879,61.523,46.875,24.414,-8.789
1641937085.114,30.762,66.895,178.223,41.992,50.781
1641937085.118,11.230,54.688,168.945,30.762,76.660
1641937085.122,8.789,46.387,34.180,15.137,32.715
1641937085.126,30.762,51.270,-46.875,23.438,12.695
1641937085.129,44.922,54.199,35.156,45.410,43.457
1641937085.133,26.855,44.434,122.070,48.340,74.219
1641937085.137,0.977,38.086,-272.461,23.438,21.973
1641937085.141,21.484,57.617,-232.910,16.602,16.113
1641937085.145,48.340,60.547,183.105,36.133,44.922
1641937085.149,36.621,53.223,123.535,44.922,20.020
1641937085.168,12.207,51.270,106.934,27.344,41.992
1641937085.172,17.578,48.340,178.223,16.602,56.152
1641937085.176,41.992,47.363,176.270,37.598,60.547
1641937085.180,40.527,43.945,80.078,53.223,62.012
1641937085.184,22.461,45.410,124.023,33.691,80.566
1641937085.188,10.254,43.457,23.926,13.184,66.406
1641937085.191,23.926,50.293,-60.547,27.344,73.242
1641937085.195,27.832,45.898,-82.520,50.293,73.242
1641937085.199,10.254,46.387,-271.973,40.527,15.625
1641937085.203,9.277,57.129,11.230,24.902,36.621
1641937085.207,34.668,41.504,83.496,36.133,59.082
1641937085.211,55.176,41.992,-39.551,51.270,73.730
1641937085.197,35.645,49.805,61.523,44.434,71.777
1641937085.201,17.578,44.434,145.020,24.902,45.410
1641937085.205,29.785,38.086,135.742,20.508,87.891
1641937085.209,45.898,34.180,67.871,45.410,110.352
1641937085.213,35.645,36.621,132.324,63.965,56.641
1641937085.217,19.531,34.668,112.793,43.945,51.270
1641937085.220,21.973,32.227,-90.332,26.855,36.133
1641937085.224,42.969,40.039,-106.934,42.480,5.859
1641937085.228,52.246,41.992,80.566,60.059,51.270
1641937085.232,31.250,35.156,188.477,48.828,97.656
1641937085.236,17.578,21.973,40.527,27.344,91.797
1641937085.240,31.738,19.043,-233.887,34.668,51.270
1641937085.242,52.246,38.574,-42.969,43.457,33.691
1641937085.246,33.691,37.598,152.344,37.109,24.414
1641937085.250,6.348,37.598,-34.668,22.461,0.000
1641937085.254,21.973,45.410,-63.477,15.625,27.344
1641937085.258,47.852,47.852,181.152,40.039,84.961
1641937085.262,33.691,36.133,130.371,40.039,95.703
1641937085.265,0.488,22.461,-187.988,16.602,91.797
1641937085.269,8.301,30.762,-216.309,20.996,82.520
1641937085.273,40.039,43.945,114.258,48.828,90.820
1641937085.277,26.855,35.156,188.965,61.035,74.707
1641937085.281,0.488,32.227,141.602,34.180,41.504
1641937085.285,6.348,35.156,123.047,9.766,26.855
1641937085.287,27.344,35.645,146.484,18.555,25.391
1641937085.291,36.621,32.227,163.574,32.715,43.945
1641937085.295,17.090,33.203,93.750,25.879,48.828
1641937085.299,4.883,42.480,136.719,0.977,48.828
1641937085.303,27.344,39.551,102.051,7.324,23.438
1641937085.307,45.410,38.574,-10.742,34.180,3.906
1641937085.310,27.344,32.227,-279.297,24.414,-18.066
1641937085.314,25.879,35.156,-217.773,9.766,-11.719
1641937085.318,52.734,36.133,209.961,8.301,83.008
1641937085.322,61.035,22.461,99.609,23.926,90.332
1641937085.326,44.434,21.484,-27.344,39.062,21.484
1641937085.330,23.438,29.785,88.867,28.809,30.762
1641937085.347,23.926,36.133,157.227,21.973,69.336
1641937085.351,41.992,35.156,38.574,26.367,40.039
1641937085.355,41.504,28.809,41.992,36.621,47.363
1641937085.359,20.996,24.902,122.070,21.484,51.758
1641937085.363,12.207,28.809,121.582,-4.395,27.344
1641937085.367,19.531,27.344,-54.688,5.859,44.434
1641937085.370,19.043,27.344,-270.508,18.066,16.113
1641937085.374,1.953,34.668,-54.688,8.301,37.109
1641937085.378,-12.695,28.320,152.832,-5.859,76.172
1641937085.382,2.441,21.484,-12.695,-1.953,48.828
1641937085.386,26.855,30.273,-16.602,19.043,41.016
1641937085.390,29.297,40.039,193.359,31.738,28.809
1641937085.392,11.719,25.879,141.113,27.344,30.762
1641937085.396,3.418,15.137,94.727,15.625,70.312
1641937085.400,26.367,27.832,168.945,22.461,98.633
1641937085.404,20.020,30.273,159.668,27.832,95.703
1641937085.408,-20.020,29.785,84.473,-0.488,86.914
1641937085.412,-20.020,30.762,-14.648,-17.090,80.566
1641937085.415,2.930,32.715,-56.641,0.488,71.289
1641937085.419,7.324,39.062,111.816,11.719,77.637
1641937085.423,-13.184,31.250,106.445,-9.277,86.426
1641937085.427,-18.066,23.926,-212.402,-28.320,87.402
1641937085.431,16.113,29.785,-52.734,-1.465,74.707
1641937085.435,35.156,25.879,270.508,23.926,60.547
1641937085.436,17.578,18.066,76.172,16.113,37.109
1641937085.440,5.859,21.973,-64.941,0.488,61.035
1641937085.444,32.227,28.809,124.512,6.836,85.938
1641937085.448,47.852,22.949,211.426,28.809,68.359
1641937085.452,33.691,19.043,96.680,28.320,67.871
1641937085.456,21.973,15.625,-45.898,12.207,63.965
1641937085.459,25.391,12.695,-99.121,5.371,69.824
1641937085.463,37.598,22.949,-8.789,27.344,69.824
1641937085.467,22.949,20.508,-134.277,41.504,64.453
1641937085.471,0.000,15.137,-320.801,14.648,61.523
1641937085.475,9.277,28.320,-33.691,10.742,78.613
1641937085.479,21.973,26.855,93.262,26.855,94.238
1641937085.482,20.508,26.367,-56.152,34.668,54.199
1641937085.486,2.930,35.645,-149.902,31.250,20.020
1641937085.490,1.465,36.133,3.906,17.578,26.367
1641937085.494,22.461,35.156,60.059,33.691,42.969
1641937085.498,33.691,37.598,-41.992,50.293,50.781
1641937085.502,22.461,35.156,-69.336,37.598,38.086
1641937085.505,21.484,44.434,-67.383,21.973,51.758
1641937085.509,38.574,39.551,-34.668,20.020,88.867
1641937085.513,51.270,26.367,-214.844,38.086,57.617
1641937085.517,47.363,39.551,-41.504,42.969,72.754
1641937085.521,28.320,41.504,211.914,24.902,112.305
1641937085.525,43.945,37.109,31.250,23.438,80.078
1641937085.527,69.824,40.527,20.508,42.480,80.566
1641937085.531,56.152,39.551,154.785,47.363,89.355
1641937085.535,35.645,34.668,125.000,23.926,49.316
1641937085.539,37.598,32.227,-105.469,11.719,55.176
1641937085.543,47.363,32.227,-97.656,28.320,57.617
1641937085.547,45.898,33.691,16.602,40.039,74.707
1641937085.550,28.320,38.574,48.340,32.715,123.535
1641937085.554,8.789,25.391,-74.219,9.277,104.492
1641937085.558,22.949,20.508,-175.781,16.602,56.152
1641937085.562,40.039,35.156,145.508,48.340,58.594
1641937085.566,19.043,27.832,138.672,46.875,34.668
1641937085.570,3.418,23.438,25.391,32.227,17.090
1641937085.571,16.602,24.414,69.824,31.738,16.113
1641937085.575,36.133,24.414,164.551,58.594,22.461
1641937085.579,36.133,17.090,181.152,79.102,57.617
1641937085.583,20.508,4.395,76.172,64.453,69.336
1641937085.587,18.555,7.812,67.871,59.082,62.988
1641937085.591,25.391,11.719,43.457,71.777,79.102
1641937085.594,15.625,12.207,27.832,73.730,83.496
1641937085.598,-7.324,9.766,-254.883,49.316,41.504
1641937085.602,-1.953,22.949,-309.570,22.949,-19.043
1641937085.606,40.039,24.414,114.258,29.297,-0.977
1641937085.610,48.340,8.789,181.641,42.480,73.730
1641937085.614,24.414,18.555,133.301,40.039,99.121
1641937085.617,19.531,30.273,194.336,19.531,73.730
1641937085.621,36.133,29.297,194.336,17.578,97.168
1641937085.625,52.246,28.320,107.910,38.574,106.445
1641937085.629,46.387,29.785,93.750,33.203,61.523
1641937085.633,31.250,28.809,88.379,14.160,9.277
1641937085.637,36.133,22.949,-71.777,29.297,15.137
1641937085.640,40.039,19.531,-246.094,46.875,36.621
1641937085.644,27.344,32.715,-211.426,43.945,1.465
1641937085.648,11.719,42.969,106.934,21.973,13.184
1641937085.652,6.348,42.969,177.246,12.695,42.480
1641937085.656,14.648,55.176,137.207,32.227,62.988
1641937085.660,14.160,53.711,231.445,31.738,11.230
1641937085.662,-3.906,50.293,429.199,5.859,28.320
1641937085.666,-4.883,51.758,462.891,-7.812,60.547
1641937085.670,25.879,60.547,371.582,15.625,-0.977
1641937085.674,43.457,76.172,394.043,39.062,16.602
1641937085.678,21.973,82.520,404.297,30.762,28.809
1641937085.682,6.348,73.242,251.465,5.371,2.441
1641937085.685,21.484,65.430,-38.086,-3.906,-14.160
1641937085.689,50.293,84.473,94.238,22.949,5.371
1641937085.693,49.316,98.145,426.270,36.133,40.039
1641937085.697,28.320,99.609,385.742,15.625,65.918
1641937085.701,37.109,103.516,344.238,6.348,42.969
1641937085.705,52.734,102.539,368.652,28.809,18.066
1641937085.707,38.574,106.445,442.383,41.504,36.621
1641937085.711,12.695,102.051,352.539,19.043,27.344
1641937085.715,-5.859,91.797,171.875,-7.324,7.812
1641937085.719,-5.859,91.309,303.223,-11.719,14.160
1641937085.723,-10.254,80.078,378.906,-7.812,42.480
1641937085.727,-38.574,65.430,38.574,-28.320,38.574
1641937085.730,-45.898,72.266,-185.547,-52.734,34.180
1641937085.734,-24.414,78.613,135.254,-34.668,91.309
1641937085.738,-28.809,71.777,203.613,-22.949,97.656
1641937085.742,-55.176,72.266,58.105,-40.039,77.637
1641937085.746,-72.266,67.871,-13.672,-52.734,83.008
1641937085.750,-61.035,69.336,10.742,-52.246,55.664
1641937085.767,-41.504,78.613,62.012,-32.715,40.527
1641937085.771,-48.828,76.660,-23.438,-40.527,39.062
1641937085.775,-64.453,66.895,-127.930,-67.383,35.156
1641937085.779,-50.781,68.848,-150.391,-69.824,30.273
1641937085.783,-25.391,74.707,-59.570,-53.223,39.551
1641937085.787,-29.785,68.848,-420.410,-39.551,22.461
1641937085.790,-42.480,81.055,-529.785,-60.059,10.254
1641937085.794,-34.180,87.402,-142.578,-69.824,61.035
1641937085.798,-14.648,70.801,-211.914,-43.457,54.688
1641937085.802,-7.324,62.500,-298.828,-28.809,54.199
1641937085.806,-30.762,56.641,-189.453,-37.598,50.293
1641937085.810,-41.504,42.480,-173.828,-57.617,13.184
1641937085.817,-26.855,39.062,-302.734,-55.176,25.879
1641937085.821,-28.320,38.086,-365.234,-30.762,22.461
1641937085.825,-46.875,28.809,-270.996,-40.039,-32.715
1641937085.829,-51.758,20.996,-254.883,-56.641,-22.949
1641937085.833,-33.203,18.066,-306.641,-50.781,26.855
1641937085.837,-22.949,15.625,-405.273,-37.109,1.465
1641937085.840,-32.715,15.625,-493.652,-25.391,7.812
1641937085.844,-41.992,25.391,-395.996,-38.086,12.695
1641937085.848,-30.273,15.625,-512.695,-45.898,-17.090
1641937085.852,-5.859,3.418,-710.938,-25.879,-23.926
1641937085.856,6.836,17.090,-332.520,-7.324,20.996
1641937085.860,-8.789,12.207,-121.094,-12.695,41.016
1641937085.857,-13.184,4.883,-257.324,-21.973,-6.348
1641937085.861,8.789,13.184,-237.305,-7.324,-8.301
1641937085.865,27.344,8.301,-128.906,14.160,10.742
1641937085.869,18.066,1.465,-105.469,11.719,45.898
1641937085.873,9.277,8.789,-177.246,-3.906,27.832
1641937085.877,24.414,7.324,-238.770,-0.977,20.020
1641937085.880,41.504,7.812,-190.918,25.391,33.203
1641937085.884,35.156,13.672,-81.055,30.273,20.508
1641937085.888,19.043,12.207,-462.402,7.324,-25.879
1641937085.892,40.039,23.926,-473.145,8.301,-37.109
1641937085.896,67.383,26.367,51.758,39.551,15.625
1641937085.900,55.664,8.301,83.496,48.828,38.086
1641937085.902,27.832,2.930,20.996,30.762,40.039
1641937085.906,39.551,7.812,105.957,31.250,46.875
1641937085.910,68.359,7.324,79.590,53.223,33.691
1641937085.914,58.594,5.859,4.395,73.242,19.531
1641937085.918,41.016,4.883,25.879,62.988,36.621
1641937085.922,47.363,-2.930,-80.566,46.875,10.254
1641937085.925,61.523,-2.930,-98.145,60.547,7.324
1641937085.929,57.129,-8.301,-162.109,81.055,-12.207
1641937085.933,39.551,-2.441,-263.672,70.312,-25.391
1641937085.937,43.457,7.812,8.301,45.898,-17.578
1641937085.941,57.129,-9.766,-1.465,53.223,-13.672
1641937085.945,67.383,-13.672,-186.035,76.172,-20.508
1641937085.947,60.059,2.441,-71.777,82.520,-19.531
1641937085.951,45.898,10.254,91.797,67.383,7.324
1641937085.955,52.734,2.441,-3.418,63.477,13.184
1641937085.959,73.242,-0.488,-89.844,89.355,34.668
1641937085.963,66.895,6.836,35.156,101.562,46.387
1641937085.967,38.086,9.766,-69.824,79.102,1.465
1641937085.970,34.668,11.719,-192.383,63.477,3.906
1641937085.974,51.270,5.371,-312.500,73.730,5.859
1641937085.978,56.641,8.789,-168.457,82.031,33.691
1641937085.982,41.992,16.113,131.348,71.777,90.820
1641937085.986,41.504,11.230,-18.066,53.223,96.191
1641937085.990,70.312,15.137,-59.082,61.035,50.781
1641937085.992,87.402,25.391,134.766,82.031,33.691
1641937085.996,69.336,17.578,130.859,72.266,59.082
1641937086.000,53.711,7.812,-165.527,45.410,54.688
1641937086.004,70.312,27.832,-139.160,54.688,65.430
1641937086.008,87.891,41.992,147.461,87.402,77.148
1641937086.012,72.754,32.227,113.281,89.355,44.434
1641937086.015,45.898,15.137,-189.453,71.777,15.625
1641937086.019,46.875,12.695,-278.809,71.777,22.461
1641937086.023,70.312,19.531,45.898,88.867,48.828
1641937086.027,67.383,10.742,171.387,104.980,61.523
1641937086.031,46.387,5.859,99.609,89.355,70.801
1641937086.035,53.223,-0.488,74.219,72.754,76.172
1641937086.052,82.520,8.789,142.578,96.191,84.961
1641937086.056,72.266,21.973,99.121,93.750,84.473
1641937086.060,34.668,24.414,43.945,60.059,79.102
1641937086.064,30.273,30.273,118.164,41.504,72.266
1641937086.068,47.363,28.320,121.094,41.016,65.430
1641937086.072,54.199,25.879,64.941,58.105,46.387
1641937086.075,40.527,20.508,-172.852,57.617,44.922
1641937086.079,24.902,21.484,-201.660,28.809,38.574
1641937086.083,35.156,23.926,177.246,21.484,28.809
1641937086.087,47.363,18.555,169.434,49.316,41.016
1641937086.091,38.574,21.484,116.211,73.242,26.367
1641937086.095,35.645,21.973,228.027,62.988,41.016
1641937086.097,53.223,22.949,188.477,51.758,51.270
1641937086.101,75.684,31.250,110.352,67.383,68.848
1641937086.105,76.172,30.273,120.605,75.195,87.402
1641937086.109,59.082,33.203,194.824,60.547,71.289
1641937086.113,60.547,32.715,202.637,41.992,73.242
1641937086.117,79.102,27.344,67.871,53.223,75.684
1641937086.120,90.820,33.691,40.527,62.012,65.918
1641937086.124,78.613,35.645,138.184,48.828,81.543
1641937086.128,68.359,31.738,206.543,33.691,82.031
1641937086.132,75.684,24.414,-67.383,34.180,16.113
1641937086.136,77.637,33.691,-274.414,56.152,16.113
1641937086.140,55.176,44.922,93.262,52.246,79.590
1641937086.141,36.133,37.109,230.469,33.203,93.750
1641937086.145,43.457,28.809,77.637,24.902,58.105
1641937086.149,45.898,31.738,131.836,35.645,57.129
1641937086.153,31.250,32.227,229.980,45.898,56.641
1641937086.157,12.695,25.391,121.094,24.902,48.340
1641937086.161,17.578,19.043,-53.711,14.160,42.480
1641937086.164,43.457,24.902,-92.285,29.785,41.016
1641937086.168,41.504,28.320,95.215,40.039,43.457
1641937086.172,17.578,20.996,122.559,22.461,31.250
1641937086.176,12.695,13.184,-225.586,-2.441,31.738
1641937086.180,31.738,13.672,-176.758,8.789,45.410
1641937086.184,29.297,20.508,115.234,38.574,60.547
1641937086.186,6.836,16.113,48.340,36.133,56.641
1641937086.190,-7.812,24.414,-31.250,8.789,36.621
1641937086.194,3.906,39.551,165.039,10.742,45.898
1641937086.198,24.414,36.621,210.449,41.016,68.848
1641937086.202,12.207,36.133,112.305,41.016,50.781
1641937086.206,-1.953,35.645,-30.762,12.207,18.555
1641937086.209,14.648,42.969,-86.914,4.395,-19.043
1641937086.213,46.875,57.617,179.199,32.715,-12.695
1641937086.217,39.551,46.875,66.895,42.480,8.301
1641937086.221,8.301,42.480,-145.996,16.602,10.254
1641937086.225,23.438,45.410,102.051,8.301,0.000
1641937086.229,51.270,32.715,172.852,33.691,43.457
1641937086.247,52.246,33.691,104.004,51.758,69.336
1641937086.251,39.551,41.992,84.961,37.109,31.250
1641937086.255,46.387,42.969,193.359,27.344,56.641
1641937086.259,64.453,32.227,146.484,40.039,47.852
1641937086.263,68.359,25.879,-25.879,56.641,1.953
1641937086.267,59.082,35.645,-97.168,49.316,14.160
1641937086.270,50.781,37.598,-186.523,30.762,-10.254
1641937086.274,58.594,33.203,-141.113,41.016,3.906
1641937086.278,61.035,29.785,-221.680,64.941,9.766
1641937086.282,50.781,37.109,-78.613,63.965,27.832
1641937086.286,36.621,32.227,198.730,47.852,67.383
1641937086.290,30.273,18.066,53.223,45.898,20.996
1641937086.277,32.227,16.113,36.133,67.383,16.113
1641937086.281,23.926,21.973,199.219,79.590,27.344
1641937086.285,5.859,20.020,199.707,56.152,38.086
1641937086.289,3.906,16.113,16.602,36.133,62.012
1641937086.293,22.949,20.996,-24.414,52.734,55.176
1641937086.297,28.809,27.344,-15.625,65.918,41.992
1641937086.300,23.438,29.785,-21.484,60.547,63.965
1641937086.304,26.367,32.227,-18.066,43.945,63.477
1641937086.308,44.922,38.574,6.348,44.434,60.059
1641937086.312,55.176,40.527,187.988,65.430,77.148
1641937086.316,31.250,36.621,213.867,51.270,92.773
1641937086.320,6.348,20.996,-189.453,16.602,77.148
1641937086.322,17.090,19.043,-355.957,4.395,81.543
1641937086.326,46.387,32.715,77.637,30.762,116.699
1641937086.330,44.434,35.156,193.848,48.828,141.113
1641937086.334,25.391,34.180,113.281,29.785,104.004
1641937086.338,38.086,37.598,103.027,23.926,48.828
1641937086.342,56.641,41.504,43.457,36.133,65.430
1641937086.345,47.363,35.645,-31.250,47.363,62.012
1641937086.349,24.414,32.715,-238.770,44.434,31.250
1641937086.353,18.555,47.363,-141.113,31.250,42.480
1641937086.357,35.645,49.805,207.520,45.410,66.406
1641937086.361,36.133,40.527,138.184,62.500,82.031
1641937086.365,18.555,42.969,-103.027,52.734,44.922
1641937086.368,20.996,50.781,94.727,37.109,48.828
1641937086.372,33.691,39.551,255.859,38.574,103.027
1641937086.376,39.062,32.715,201.660,56.152,88.379
1641937086.380,20.508,34.180,198.730,48.828,67.871
1641937086.384,2.930,38.086,177.246,33.203,69.824
1641937086.388,2.930,37.109,163.574,42.969,58.594
1641937086.391,4.395,27.832,-105.957,61.523,14.160
1641937086.395,-3.418,30.273,-200.684,68.359,15.625
1641937086.399,-19.043,41.016,161.133,40.039,91.797
1641937086.403,-16.113,27.344,194.824,13.672,110.352
1641937086.407,13.672,27.344,29.785,24.414,70.801
1641937086.411,23.438,35.645,119.141,37.109,63.477
1641937086.412,6.348,33.203,306.641,28.809,121.582
1641937086.416,19.043,31.250,276.855,11.230,104.004
1641937086.420,38.086,31.738,164.551,24.414,61.523
1641937086.424,41.992,41.016,239.746,51.758,46.875
1641937086.428,38.574,41.016,239.258,42.480,18.066
1641937086.432,32.227,35.645,32.227,28.320,39.062
1641937086.435,48.828,36.133,-206.543,32.715,100.586
1641937086.439,62.012,50.781,-48.828,52.734,97.168
1641937086.443,37.109,48.828,261.719,55.176,89.355
1641937086.447,20.508,32.227,132.324,44.434,111.816
1641937086.451,29.785,41.504,64.453,50.781,80.078
1641937086.455,29.785,50.293,140.137,51.758,80.566
1641937086.457,25.391,48.828,165.527,52.246,98.633
1641937086.461,13.184,53.711,114.258,44.434,83.008
1641937086.465,12.207,54.688,1.953,26.855,68.848
1641937086.469,30.273,48.828,128.418,33.203,71.289
1641937086.473,35.645,46.875,171.875,45.898,41.016
1641937086.477,8.301,40.039,-117.188,28.320,12.695
1641937086.480,1.953,33.691,-236.816,11.230,-1.953
1641937086.484,36.133,35.156,72.266,20.020,29.785
1641937086.488,41.992,28.320,154.785,35.156,51.270
1641937086.492,26.367,29.297,24.414,25.391,49.805
1641937086.496,21.973,31.250,-0.488,0.977,68.359
1641937086.500,33.203,30.273,137.695,3.418,75.195
1641937086.517,43.945,29.297,157.715,23.438,33.691
1641937086.521,28.320,21.973,139.160,31.250,32.715
1641937086.525,10.742,13.184,23.926,12.695,27.344
1641937086.529,22.461,32.227,-16.113,12.695,18.555
1641937086.533,38.086,41.504,112.793,35.156,18.066
1641937086.537,18.555,24.902,-253.418,39.551,-18.066
1641937086.540,4.395,37.598,-298.340,19.531,-6.348
1641937086.544,16.602,46.875,130.859,8.301,24.902
1641937086.548,20.996,39.062,68.848,20.508,30.762
1641937086.552,22.461,44.434,14.160,34.180,59.570
1641937086.556,2.930,48.828,180.664,19.043,62.988
1641937086.560,-17.578,41.992,262.207,-3.418,35.645
1641937086.562,0.000,46.875,217.773,-8.789,33.203
1641937086.566,22.461,64.941,310.059,12.695,53.223
1641937086.570,10.742,69.824,514.160,16.602,36.621
1641937086.574,-12.207,63.477,585.938,-7.812,76.660
1641937086.578,14.648,65.430,561.035,-4.395,114.746
1641937086.582,52.246,77.148,445.801,17.090,49.805
1641937086.585,44.434,86.426,401.367,31.250,39.062
1641937086.589,30.762,91.797,485.840,24.414,31.738
1641937086.593,36.621,86.914,326.660,21.484,-21.973
1641937086.597,63.477,100.586,291.504,42.480,-0.488
1641937086.601,70.801,117.676,762.695,62.012,43.457
1641937086.605,46.387,120.117,891.602,52.246,47.363
1641937086.607,56.641,134.766,729.492,49.316,29.785
1641937086.611,77.637,141.602,798.828,74.707,2.930
1641937086.615,72.754,137.695,-980.469,85.449,18.555
1641937086.619,37.109,130.859,991.699,63.965,16.602
1641937086.623,7.812,131.348,982.910,45.410,19.043
1641937086.627,25.391,134.277,990.234,44.922,64.453
1641937086.630,33.691,134.766,990.723,45.898,50.293
1641937086.634,7.324,123.047,-971.680,24.902,-3.906
1641937086.638,-25.391,104.492,689.453,-8.789,-7.324
1641937086.642,-30.762,114.258,630.859,-32.715,23.438
1641937086.646,-25.391,117.676,-971.680,-35.645,61.035
1641937086.650,-49.316,100.586,854.492,-47.363,34.180
1641937086.652,-86.914,92.773,565.430,-93.262,1.953
1641937086.656,-94.238,88.867,494.629,-122.070,32.227
1641937086.660,-83.008,80.566,405.762,-104.492,67.871
1641937086.664,-120.605,81.055,128.418,-104.004,58.594
1641937086.668,-168.457,79.102,-25.391,-133.789,59.082
1641937086.672,-158.203,65.918,-262.207,-161.621,27.832
1641937086.675,-131.836,65.918,-440.430,-155.273,8.789
1641937086.679,-134.766,52.246,-640.137,-130.371,32.227
1641937086.683,-141.602,39.551,-918.945,-131.836,-10.742
1641937086.687,-140.137,44.434,-713.379,-145.508,31.250
1641937086.691,-127.930,29.785,-682.617,-145.020,92.773
1641937086.695,-108.398,21.484,-839.355,-122.070,55.176
1641937086.697,-101.562,24.902,-812.500,-117.188,15.137
1641937086.701,-102.539,20.996,-727.539,-134.766,15.137
1641937086.705,-95.703,17.578,-833.984,-136.230,18.066
1641937086.709,-76.660,19.531,-952.148,-119.629,41.016
1641937086.713,-71.289,25.879,-828.613,-99.609,122.559
1641937086.717,-73.242,20.020,-793.945,-94.727,113.281
1641937086.720,-56.152,16.113,-916.504,-98.633,50.781
1641937086.724,-33.691,23.438,-980.469,-77.148,2.441
1641937086.728,-14.648,38.086,-787.109,-49.316,19.531
1641937086.732,-15.137,38.574,-510.742,-41.016,72.266
1641937086.736,-17.578,28.809,-609.375,-41.992,48.828
1641937086.740,8.301,25.391,-693.848,-26.367,3.418
1641937086.742,28.809,29.785,-468.750,6.348,53.223
1641937086.746,23.438,24.902,-375.000,17.578,74.707
1641937086.750,11.719,10.254,-683.594,5.371,-6.348
1641937086.754,34.668,22.949,-645.996,17.090,1.465
1641937086.758,68.359,38.086,-273.438,53.711,88.867
1641937086.762,59.570,24.414,-297.852,61.035,89.355
1641937086.765,33.691,10.742,-608.887,40.039,31.738
1641937086.769,43.457,16.602,-692.871,38.574,18.555
1641937086.773,79.590,34.668,-285.156,68.359,59.570
1641937086.777,89.844,30.762,-100.098,92.773,52.734
1641937086.781,75.195,20.996,-174.316,83.008,31.738
1641937086.785,80.566,22.461,-148.926,64.941,62.988
1641937086.786,104.492,19.043,-61.523,84.473,66.895
1641937086.790,99.121,10.742,-67.871,112.305,56.641
1641937086.794,73.242,10.254,-154.785,101.562,42.969
1641937086.798,68.359,17.578,-119.141,77.637,13.672
1641937086.802,94.238,16.113,-147.461,83.008,2.930
1641937086.806,110.840,13.184,-229.004,103.516,6.348
1641937086.809,86.914,7.324,-492.188,94.238,-19.531
1641937086.813,79.590,11.230,-472.168,70.801,-15.137
1641937086.817,104.980,20.508,-9.277,72.754,48.340
1641937086.821,121.582,19.043,21.484,96.191,49.316
1641937086.825,116.211,20.996,-62.988,104.980,19.043
1641937086.829,102.051,27.832,1.953,82.031,29.785
1641937086.846,106.934,29.785,68.848,83.496,62.988
1641937086.850,119.141,26.855,36.133,106.934,59.570
1641937086.854,111.816,32.227,67.383,113.281,75.684
1641937086.858,89.844,32.715,140.625,103.027,96.680
1641937086.862,85.449,28.320,125.488,93.262,33.203
1641937086.866,96.191,19.043,-107.910,106.445,29.297
1641937086.869,98.145,21.484,-171.387,120.117,51.270
1641937086.873,83.496,27.344,30.273,115.723,56.641
1641937086.877,70.801,19.531,66.895,107.910,63.477
1641937086.881,78.613,12.207,-117.676,107.910,12.695
1641937086.885,96.191,22.461,-147.949,123.535,-18.066
1641937086.889,86.914,36.133,192.383,113.281,6.348
1641937086.891,63.477,26.855,211.914,88.867,5.859
1641937086.895,76.660,22.949,78.613,90.332,1.465
1641937086.899,91.309,33.691,186.035,102.051,45.898
1641937086.903,82.520,31.738,307.129,110.840,77.637
1641937086.907,63.477,23.438,190.430,89.844,50.293
1641937086.911,63.965,28.320,35.645,82.520,9.766
1641937086.914,76.172,36.133,-25.879,106.445,10.254
1641937086.918,68.848,39.062,103.516,105.957,47.363
1641937086.922,45.410,36.133,83.984,80.078,47.852
1641937086.926,36.621,35.156,-234.863,53.223,25.391
1641937086.930,59.570,45.898,-119.629,57.617,72.266
1641937086.934,62.500,43.945,179.199,76.660,95.703
1641937086.937,32.227,33.203,20.996,65.430,30.273
1641937086.941,24.902,36.621,-109.863,52.246,-15.137
1641937086.945,52.246,47.363,75.684,53.711,-1.465
1641937086.949,66.406,49.805,160.645,66.895,19.531
1641937086.953,52.246,41.504,107.422,75.684,58.105
1641937086.957,41.504,35.645,-4.395,55.176,73.730
1641937086.960,47.852,41.016,-42.969,46.875,62.012
1641937086.964,65.430,46.387,96.191,58.105,47.363
1641937086.968,57.129,39.551,-72.266,64.941,-3.906
1641937086.972,33.203,45.410,-231.934,47.363,-18.555
1641937086.976,41.504,59.570,112.305,28.809,41.504
1641937086.980,62.988,55.664,238.770,46.387,78.613
1641937086.982,63.965,48.340,184.082,55.664,55.176
1641937086.986,40.039,47.852,63.965,28.809,7.324
1641937086.990,32.715,47.363,115.723,5.859,-17.090
1641937086.994,48.340,38.574,159.668,19.043,-15.625
1641937086.998,46.875,37.598,72.754,37.109,-44.922
1641937087.002,26.367,37.109,-52.246,26.367,-48.340
1641937087.005,23.438,37.109,-62.012,19.043,5.371
1641937087.009,48.828,37.598,77.148,39.551,13.184
1641937087.013,52.734,24.902,-217.773,62.500,-2.441
1641937087.017,41.504,42.969,-236.816,60.059,24.414
1641937087.021,27.344,57.617,174.805,42.969,67.383
1641937087.025,31.250,41.016,88.379,40.039,16.113
1641937087.027,54.688,42.480,39.062,55.176,9.277
1641937087.031,43.945,47.363,191.895,62.988,40.527
1641937087.035,11.719,38.086,243.652,39.062,32.227
1641937087.039,8.789,27.344,27.832,15.137,12.695
1641937087.043,36.133,29.785,-50.781,29.785,13.672
1641937087.047,49.805,32.715,31.250,48.340,41.016
1641937087.050,36.621,30.762,83.008,33.691,37.598
1641937087.054,20.020,16.113,-60.059,6.348,-3.906
1641937087.058,40.039,21.973,-311.523,12.207,-11.719
1641937087.062,67.383,38.574,57.617,41.016,46.875
1641937087.066,48.340,26.855,250.977,34.668,61.523
1641937087.070,30.273,32.227,124.023,11.230,91.309
1641937087.072,39.062,40.039,125.000,5.371,136.230
1641937087.076,44.434,38.086,188.965,21.484,57.617
1641937087.080,29.785,38.086,229.004,31.738,41.016
1641937087.084,12.695,41.016,104.980,7.812,48.828
1641937087.088,20.508,43.945,42.480,-3.906,12.207
1641937087.092,39.551,34.668,12.207,19.043,4.395
1641937087.095,44.922,37.109,-28.320,35.645,1.953
1641937087.099,13.672,40.039,-291.016,22.461,-34.180
1641937087.103,-0.488,53.223,-279.297,11.719,-27.832
1641937087.107,39.551,53.223,161.621,36.133,51.758
1641937087.111,53.711,40.527,148.926,56.641,44.922
1641937087.115,21.973,47.363,55.176,46.875,14.648
1641937087.117,11.719,49.316,132.324,30.762,12.207
1641937087.121,38.574,48.828,205.078,37.109,26.367
1641937087.125,59.082,44.922,174.316,60.059,25.879
1641937087.129,45.898,44.922,208.984,47.363,-9.277
1641937087.133,26.367,44.434,231.445,22.461,-8.301
1641937087.137,34.668,38.086,106.934,33.203,-22.949
1641937087.140,55.176,37.109,-94.238,44.922,0.977
1641937087.144,56.152,49.805,-164.551,49.805,49.316
1641937087.148,39.062,60.547,136.230,31.250,59.082
1641937087.152,41.992,53.223,156.250,26.367,47.363
1641937087.156,73.730,47.852,6.348,57.129,38.574
1641937087.160,63.477,50.781,109.863,59.570,33.203
1641937087.162,31.250,53.711,275.879,43.945,62.988
1641937087.166,29.297,52.246,229.004,34.668,76.172
1641937087.170,33.691,44.434,103.027,46.387,41.016
1641937087.174,32.227,41.016,138.672,67.871,34.668
1641937087.178,23.438,47.852,168.945,58.594,-9.766
1641937087.182,12.695,52.734,54.688,41.992,-14.648
1641937087.185,16.602,49.805,-233.398,31.250,4.395
1641937087.189,39.062,62.988,-104.980,47.363,29.785
1641937087.193,35.645,61.035,248.535,58.594,58.594
1641937087.197,9.277,39.551,123.047,35.645,20.508
1641937087.201,20.020,37.598,66.895,38.574,-10.254
1641937087.205,44.922,34.180,162.598,57.617,-7.324
1641937087.207,43.945,29.297,88.867,70.801,-18.555
1641937087.211,28.809,27.344,-61.523,70.312,-23.438
1641937087.215,35.156,40.039,-105.957,60.547,-33.691
1641937087.219,66.406,55.176,124.023,82.520,-25.391
1641937087.223,76.660,35.645,273.438,85.449,18.555
1641937087.227,35.156,16.113,-11.230,57.129,-1.953
1641937087.230,17.578,24.414,-215.332,34.668,-30.762
1641937087.234,54.688,42.480,89.844,35.645,12.207
1641937087.238,65.430,38.574,323.242,48.828,65.918
1641937087.242,43.945,35.645,169.434,29.297,2.441
1641937087.246,21.973,45.898,43.945,11.719,-30.762
1641937087.250,28.809,43.457,180.176,23.926,27.344
1641937087.268,41.504,37.598,123.535,36.133,28.320
1641937087.272,26.367,40.039,66.895,39.062,42.480
1641937087.276,8.789,40.039,59.570,16.113,70.801
1641937087.280,20.508,44.434,15.625,5.371,55.664
1641937087.284,38.574,42.969,133.789,33.203,55.176
1641937087.288,20.508,37.109,-71.777,43.945,24.902
1641937087.291,-7.324,45.898,-128.418,28.320,30.273
1641937087.295,0.977,47.852,162.598,23.438,62.500
1641937087.299,21.973,28.809,149.902,42.480,69.336
1641937087.303,22.949,19.531,-150.391,52.246,19.531
1641937087.307,13.184,38.086,-25.879,43.457,18.066
1641937087.311,12.207,37.109,156.250,32.715,48.340
1641937087.312,30.273,31.250,38.574,36.621,43.945
1641937087.316,40.527,40.527,65.918,51.270,30.762
1641937087.320,36.621,47.852,152.832,50.293,-3.906
1641937087.324,31.738,47.852,114.746,30.762,-11.719
1641937087.328,47.852,42.480,78.613,32.227,11.719
1641937087.332,68.848,35.156,-37.109,52.246,34.668
1641937087.335,63.477,45.410,-72.266,53.711,46.875
1641937087.339,54.688,61.035,21.484,36.133,63.965
1641937087.343,58.105,58.105,-93.750,29.785,19.043
1641937087.347,72.266,61.523,-266.113,39.551,-38.574
1641937087.351,63.965,63.965,16.602,35.645,-1.953
1641937087.355,31.738,46.875,175.293,19.043,35.645
1641937087.357,22.949,41.016,63.965,5.371,25.391
1641937087.361,36.621,45.898,116.699,18.066,7.324
1641937087.365,45.410,50.781,261.719,38.086,22.949
1641937087.369,23.438,44.434,156.250,22.461,6.348
1641937087.373,4.883,40.039,17.090,6.348,-22.461
1641937087.377,19.043,40.527,-45.898,14.648,-4.395
1641937087.380,36.133,41.504,-41.016,42.969,40.039
1641937087.384,20.020,45.410,110.352,45.898,45.898
1641937087.388,-11.230,30.273,-224.609,19.531,5.859
1641937087.392,7.324,41.992,-258.301,22.461,2.441
1641937087.396,37.598,55.664,213.867,43.457,23.926
1641937087.400,20.996,35.645,174.316,44.434,8.789
1641937087.402,7.812,33.691,131.836,25.391,41.504
1641937087.406,20.508,41.016,225.098,18.066,52.246
1641937087.410,41.016,35.645,208.984,45.898,43.457
1641937087.414,38.086,26.855,177.246,59.082,38.086
1641937087.418,20.020,27.832,206.543,38.574,25.879
1641937087.422,12.695,25.879,118.164,15.137,7.324
1641937087.425,25.879,21.484,95.215,25.391,-7.812
1641937087.429,34.668,15.625,-12.695,49.805,2.930
1641937087.433,13.184,20.020,-164.551,36.621,11.230
1641937087.437,9.277,41.016,174.316,19.043,36.133
1641937087.441,38.574,47.363,343.262,21.484,57.129
1641937087.445,48.828,43.457,159.180,32.227,62.012
1641937087.447,31.738,41.016,90.332,31.738,32.227
1641937087.451,15.137,43.945,215.332,10.254,37.109
1641937087.455,18.066,40.527,207.031,10.254,41.504
1641937087.459,34.180,47.852,116.699,24.414,32.227
1641937087.463,27.832,60.547,164.551,22.949,32.227
1641937087.467,11.230,51.270,86.426,11.719,43.457
1641937087.470,11.230,46.875,4.395,0.977,78.613
1641937087.474,19.043,40.527,-148.926,13.184,62.988
1641937087.478,24.414,41.992,-21.973,26.367,50.293
1641937087.482,13.184,39.062,326.172,17.090,37.109
1641937087.486,3.906,33.203,200.195,4.395,2.930
1641937087.490,24.902,34.668,87.891,16.602,40.527
1641937087.492,41.016,34.668,214.844,41.016,65.430
1641937087.496,26.855,30.762,226.074,32.227,43.457
1641937087.500,3.906,30.273,-0.488,17.090,17.578
1641937087.504,21.484,39.062,10.254,26.855,53.711
1641937087.508,57.129,38.086,212.402,47.363,36.133
1641937087.512,34.180,32.227,174.805,43.457,-6.348
1641937087.515,-0.488,28.809,-139.160,12.207,-30.273
1641937087.519,22.461,34.668,-234.375,10.254,-14.160
1641937087.523,56.641,47.363,137.207,35.156,21.973
1641937087.527,44.922,36.621,303.223,46.387,40.527
1641937087.531,23.438,32.227,164.551,29.297,39.551
1641937087.535,27.832,41.992,61.523,14.648,-1.953
1641937087.536,52.734,46.387,203.125,33.691,5.859
1641937087.540,59.570,42.480,253.418,54.688,17.090
1641937087.544,34.668,39.551,114.746,41.992,-37.109
1641937087.548,24.414,47.852,170.410,19.531,-9.766
1641937087.552,41.016,43.945,198.242,30.273,41.504
1641937087.556,50.293,37.598,66.895,54.688,-0.977
1641937087.559,14.160,32.715,-195.801,37.598,-24.902
1641937087.563,-3.418,39.551,-239.258,6.836,-30.273
1641937087.567,28.809,45.410,182.617,22.949,28.809
1641937087.571,38.574,27.832,171.875,50.781,42.480
1641937087.575,16.602,23.438,87.402,51.270,49.805
1641937087.579,0.977,31.250,192.871,35.156,45.898
1641937087.597,10.742,41.992,197.266,31.250,-7.812
1641937087.601,27.344,43.945,150.879,48.340,-20.020
1641937087.605,26.367,37.109,159.180,52.734,-17.090
1641937087.609,6.348,35.156,245.117,38.574,0.977
1641937087.613,7.812,36.621,210.938,24.902,-7.324
1641937087.617,26.367,31.738,-75.684,36.621,-9.277
1641937087.620,35.156,40.039,-81.055,62.500,11.230
1641937087.624,27.344,48.828,112.793,52.734,-13.184
1641937087.628,17.090,42.969,85.449,28.320,-37.109
1641937087.632,20.508,39.551,-37.109,23.926,-17.090
1641937087.636,31.738,45.410,-65.918,33.691,15.137
1641937087.640,25.879,54.199,140.625,22.949,25.391
1641937087.642,0.488,52.734,126.953,-1.953,39.551
1641937087.646,10.742,56.152,89.355,9.277,51.758
1641937087.650,32.715,55.176,145.020,29.785,9.766
1641937087.654,23.438,46.387,181.152,30.762,-21.973
1641937087.658,4.395,36.133,119.629,17.578,-4.883
1641937087.662,10.742,25.879,-53.711,10.254,-0.488
1641937087.665,34.668,33.691,-117.188,28.320,0.488
1641937087.669,34.180,51.758,79.102,42.480,20.508
1641937087.673,11.719,45.898,83.496,24.902,-36.621
1641937087.677,14.160,33.203,-234.375,4.883,-84.961
1641937087.681,40.527,44.434,-185.059,19.043,-47.363
1641937087.685,52.734,48.828,151.367,48.340,-18.066
1641937087.686,38.574,35.645,39.062,42.969,-33.203
1641937087.690,20.508,38.086,-91.797,19.043,10.742
1641937087.694,24.902,49.805,121.094,12.695,39.551
1641937087.698,33.203,41.016,180.176,34.180,-2.930
1641937087.702,18.066,32.715,101.074,45.410,8.789
1641937087.706,2.930,32.227,-4.395,28.320,1.465
1641937087.709,15.625,34.668,-19.531,29.785,1.953
1641937087.713,36.621,38.574,146.484,44.922,50.293
1641937087.717,28.809,20.508,29.785,55.176,66.895
1641937087.721,9.277,13.184,-172.363,46.387,40.039
1641937087.725,21.484,29.785,107.910,39.551,77.637
1641937087.729,41.016,29.297,207.520,58.105,84.961
1641937087.733,39.551,32.715,119.629,63.477,24.902
1641937087.737,26.367,39.551,46.387,47.363,22.461
1641937087.741,26.367,41.016,140.625,26.367,64.941
1641937087.745,39.062,39.551,196.289,26.855,82.031
1641937087.749,40.527,41.992,9.766,42.480,34.668
1641937087.753,26.367,54.688,10.254,31.738,53.223
1641937087.756,14.160,52.734,61.523,5.371,76.660
1641937087.760,32.715,46.387,76.172,20.508,62.500
1641937087.764,47.363,42.969,-104.004,49.316,70.312
1641937087.768,33.691,46.387,-29.297,38.574,62.500
1641937087.772,19.043,37.598,235.352,5.371,63.477
1641937087.776,30.273,29.297,94.238,-2.441,53.711
1641937087.793,47.363,33.203,48.828,16.113,51.758
1641937087.797,43.457,40.039,221.191,30.762,80.078
1641937087.801,23.926,41.504,223.633,26.367,99.609
1641937087.805,20.508,29.785,106.445,14.160,87.402
1641937087.809,38.574,25.391,-6.836,27.344,32.715
1641937087.813,39.551,33.691,5.371,41.992,49.316
1641937087.816,21.973,38.086,145.508,29.297,85.449
1641937087.820,9.277,31.738,-16.602,5.371,44.434
1641937087.824,19.531,32.715,-244.141,11.719,28.320
1641937087.828,40.039,44.434,112.305,45.410,79.102
1641937087.832,19.043,30.273,294.434,43.945,74.707
1641937087.836,-0.977,19.043,134.766,25.879,33.691
1641937087.822,18.066,28.809,129.395,26.367,47.363
1641937087.826,29.297,29.297,275.391,36.133,48.340
1641937087.830,12.695,14.160,262.695,30.762,6.836
1641937087.834,-5.859,19.043,114.258,-3.418,-24.414
1641937087.838,4.395,25.391,202.148,-12.207,6.836
1641937087.842,25.391,16.602,150.879,5.859,29.297
1641937087.845,24.414,26.855,12.207,13.672,27.344
1641937087.849,13.672,34.180,115.723,3.418,52.734
1641937087.853,12.695,30.273,193.359,-10.254,8.789
1641937087.857,31.250,32.227,229.980,5.371,-0.488
1641937087.861,46.875,32.715,222.168,30.273,50.293
1641937087.865,33.691,20.508,-248.047,28.809,-25.879
1641937087.867,26.855,24.414,-272.461,17.090,-64.453
1641937087.871,23.926,26.855,243.652,8.789,1.953
1641937087.875,18.066,18.555,238.770,12.695,19.043
1641937087.879,17.090,29.785,176.270,21.973,38.574
1641937087.883,11.719,30.762,227.539,7.812,27.832
1641937087.887,8.301,27.832,114.258,-1.953,37.598
1641937087.890,15.137,28.809,-75.684,11.719,78.613
1641937087.894,14.160,34.180,-88.379,17.578,23.926
1641937087.898,7.812,40.527,237.305,6.836,1.465
1641937087.902,14.648,21.973,218.262,2.930,14.648
1641937087.906,33.203,16.113,-12.207,19.043,-0.488
1641937087.910,43.945,32.227,132.812,42.480,41.504
1641937087.912,35.645,39.551,311.035,44.434,61.523
1641937087.916,34.668,34.668,236.816,35.156,36.133
1641937087.920,46.875,27.832,141.602,51.270,34.668
1641937087.924,57.617,22.949,235.352,79.590,48.340
1641937087.928,46.875,13.672,277.832,62.988,47.852
1641937087.932,29.297,6.348,70.312,28.809,10.742
1641937087.935,35.156,10.742,-188.965,28.320,5.859
1641937087.939,53.223,24.414,-59.570,44.434,17.578
1641937087.943,41.016,31.250,257.812,52.734,38.086
1641937087.947,20.996,23.438,157.227,32.715,19.531
1641937087.951,32.227,23.438,46.387,24.414,16.113
1641937087.955,47.852,24.902,183.105,30.762,32.227
1641937087.958,39.551,26.855,171.387,31.738,45.898
1641937087.962,6.836,25.391,-14.648,18.066,18.066
1641937087.966,0.488,20.508,-62.500,3.418,-32.715
1641937087.970,30.273,32.227,140.625,25.391,-2.930
1641937087.974,34.180,32.715,236.816,35.645,23.438
1641937087.978,9.766,26.367,-9.277,19.043,-1.465
1641937087.981,11.719,36.621,-113.770,9.277,20.508
1641937087.985,37.109,45.898,130.371,17.090,0.977
1641937087.989,43.945,38.574,240.723,34.180,3.906
1641937087.993,23.438,34.180,66.406,25.879,17.578
1641937087.997,1.465,33.691,28.320,2.441,32.227
1641937088.001,25.879,30.273,210.449,8.789,68.359
1641937088.017,45.410,30.273,151.855,27.344,11.719
1641937088.021,19.531,36.621,40.527,30.762,-2.930
1641937088.025,-0.977,38.086,79.102,16.602,26.855
1641937088.029,13.672,33.691,98.633,23.438,17.090
1641937088.033,32.227,30.273,104.492,55.176,7.812
1641937088.037,25.391,20.508,-33.691,62.988,-7.324
1641937088.040,6.836,19.043,-101.074,37.598,-25.879
1641937088.044,11.230,24.414,68.359,17.578,-14.648
1641937088.048,31.738,22.461,35.645,36.133,-8.789
1641937088.052,31.250,22.461,-131.348,57.617,-20.020
1641937088.056,23.438,37.598,18.066,45.410,-4.395
1641937088.060,17.090,39.062,143.555,21.973,-13.672
1641937088.062,29.785,39.062,116.699,30.273,47.363
1641937088.066,47.852,35.156,66.406,49.316,22.461
1641937088.070,33.203,30.762,154.785,49.805,16.602
1641937088.074,14.160,27.832,239.746,41.992,51.270
1641937088.078,14.160,22.949,106.445,44.922,63.965
1641937088.082,14.648,18.555,-62.988,59.570,50.781
1641937088.085,0.977,25.391,-19.043,64.453,44.434
1641937088.089,-9.277,34.180,27.832,42.969,83.496
1641937088.093,2.930,36.621,-170.410,23.926,47.852
1641937088.097,27.344,41.504,-297.852,33.203,52.246
1641937088.101,44.434,51.270,49.805,46.387,72.754
1641937088.105,28.809,41.992,206.055,39.062,16.602
1641937088.122,14.160,32.227,77.637,29.785,9.277
1641937088.126,36.621,30.762,143.555,45.410,62.500
1641937088.130,38.086,25.391,253.418,54.688,71.289
1641937088.134,13.184,25.391,200.684,35.645,51.758
1641937088.138,9.766,30.762,109.863,21.973,52.246
1641937088.142,26.367,27.832,30.273,22.461,36.621
1641937088.145,33.691,30.273,47.363,33.203,49.316
1641937088.149,15.137,28.809,159.180,33.691,53.711
1641937088.153,-7.812,15.137,-185.547,16.113,14.160
1641937088.157,10.742,28.320,-187.500,18.066,29.785
1641937088.161,31.738,39.062,239.258,39.062,68.359
1641937088.165,12.695,27.832,219.727,38.086,91.309
1641937088.151,-8.301,29.297,163.086,17.578,99.121
1641937088.155,3.418,34.180,238.770,7.324,83.008
1641937088.159,32.227,31.738,247.559,24.902,57.129
1641937088.163,34.180,34.180,166.992,36.133,55.176
1641937088.167,20.508,33.691,159.180,20.996,70.801
1641937088.171,22.949,29.297,92.773,5.371,41.016
1641937088.174,40.527,32.715,41.016,10.742,33.203
1641937088.178,41.504,34.668,76.172,27.832,51.270
1641937088.182,22.949,31.250,141.113,19.043,64.453
1641937088.186,19.043,20.020,195.312,0.000,40.527
1641937088.190,30.762,16.602,214.355,5.371,17.578
1641937088.194,38.086,0.000,-20.508,22.461,19.043
1641937088.197,21.973,0.488,-242.676,22.949,20.020
1641937088.201,13.184,28.320,144.531,12.207,67.383
1641937088.205,27.832,22.461,295.898,23.438,79.590
1641937088.209,41.016,19.043,211.914,39.062,56.152
1641937088.213,24.902,28.320,253.906,36.133,75.195
1641937088.217,-0.977,21.484,183.594,25.391,116.211
1641937088.220,-2.930,13.672,71.289,17.090,86.914
1641937088.224,21.484,27.344,-103.516,38.574,15.137
1641937088.228,31.738,43.945,13.672,50.781,-0.977
1641937088.232,15.137,34.180,286.621,33.691,-4.395
1641937088.236,12.207,28.320,211.426,22.461,-27.344
1641937088.240,33.203,34.668,179.688,28.809,-11.719
1641937088.242,42.480,37.109,251.953,42.480,-14.648
1641937088.246,33.203,40.039,318.848,35.645,19.043
1641937088.250,23.438,34.180,54.688,19.043,6.348
1641937088.254,41.992,36.621,-119.629,24.902,-46.875
1641937088.258,66.406,40.527,210.938,45.898,0.488
1641937088.262,48.828,19.531,213.867,48.340,5.859
1641937088.265,28.320,8.301,-59.082,18.066,-8.301
1641937088.269,33.691,18.555,-132.812,6.836,0.000
1641937088.273,48.828,32.227,181.152,34.180,16.602
1641937088.277,36.621,24.902,338.379,42.480,18.555
1641937088.281,8.301,14.648,270.508,19.043,22.461
1641937088.285,1.953,14.648,213.379,-1.465,36.133
1641937088.287,20.020,20.020,274.414,17.578,42.969
1641937088.291,30.273,19.043,237.793,35.645,15.625
1641937088.295,10.254,20.020,146.484,20.020,-6.348
1641937088.299,-1.953,23.438,221.680,4.395,48.340
1641937088.303,19.043,22.949,286.621,10.742,48.828
1641937088.307,30.762,18.555,187.988,33.203,13.672
1641937088.310,9.766,12.695,-197.754,28.809,24.902
1641937088.314,4.395,25.879,-225.098,8.301,26.855
1641937088.318,23.926,34.668,169.434,14.648,16.113
1641937088.322,29.785,28.809,173.340,33.691,-12.695
1641937088.326,17.090,25.879,148.926,34.668,-27.832
1641937088.330,7.324,20.996,211.426,12.695,-58.105
1641937088.347,20.996,16.602,213.867,5.371,-49.805
1641937088.351,41.504,15.137,152.344,29.785,-14.160
1641937088.355,35.645,23.926,84.961,38.574,-54.688
1641937088.359,18.555,31.250,143.066,25.879,-52.246
1641937088.363,27.344,23.926,166.504,17.090,-18.555
1641937088.367,39.551,14.160,-89.355,29.785,-21.484
1641937088.370,41.016,20.996,-146.484,41.992,-18.555
1641937088.374,30.762,28.809,64.941,22.461,-14.648
1641937088.378,21.973,33.203,98.633,4.883,-7.324
1641937088.382,27.344,23.438,-85.449,10.742,-21.484
1641937088.386,41.992,30.762,-108.887,27.832,-8.301
1641937088.390,38.574,49.316,224.609,22.949,15.137
1641937088.392,22.949,34.180,187.012,-1.953,1.465
1641937088.396,32.715,27.832,106.934,5.859,-6.836
1641937088.400,41.016,35.156,168.945,33.691,3.906
1641937088.404,28.320,33.691,259.277,36.621,33.691
1641937088.408,5.859,16.602,180.176,17.090,43.945
1641937088.412,20.508,0.488,0.488,24.902,28.320
1641937088.415,60.059,13.672,-17.090,69.336,33.203
1641937088.419,41.016,36.133,140.625,61.523,28.809
1641937088.423,0.000,23.438,160.156,23.438,-3.906
1641937088.427,-0.977,4.883,-180.176,20.508,-3.906
1641937088.431,12.207,14.648,-178.223,26.367,22.461
1641937088.435,13.672,31.738,105.469,32.227,30.762
1641937088.436,-6.348,27.832,62.500,12.695,3.906
1641937088.440,-13.184,23.438,-42.969,-5.371,-39.551
1641937088.444,19.531,42.480,163.086,8.301,-6.348
1641937088.448,32.715,45.898,244.141,21.973,15.137
1641937088.452,7.812,31.738,122.070,14.648,-5.371
1641937088.456,-8.301,22.461,-45.898,-3.906,-7.812
1641937088.459,16.113,28.320,-133.301,2.930,-10.742
1641937088.463,41.992,39.062,-38.086,23.926,-4.883
1641937088.467,35.156,42.969,-133.789,29.297,-25.391
1641937088.471,21.973,45.898,-257.812,9.277,-51.270
1641937088.475,29.297,52.734,47.852,-11.230,-1.465
1641937088.479,40.527,42.480,131.836,1.465,3.906
1641937088.483,30.762,35.645,65.430,10.742,-0.488
1641937088.487,8.789,35.156,22.949,1.953,27.344
1641937088.491,7.324,33.203,-1.953,-8.301,11.230
1641937088.495,20.508,30.273,-6.836,-6.836,-19.043
1641937088.499,20.996,26.367,-107.422,13.672,-14.160
1641937088.503,8.789,33.203,-66.406,10.254,44.434
1641937088.506,3.906,40.527,-20.020,-12.207,73.242
1641937088.510,13.672,36.133,-26.367,0.488,10.742
1641937088.514,20.996,23.926,-222.656,21.484,-22.461
1641937088.518,16.602,28.809,-138.672,27.344,8.301
1641937088.522,3.906,31.250,152.344,14.160,37.598
1641937088.526,7.324,22.461,80.566,11.230,47.852
1641937088.527,23.926,23.438,70.801,40.527,31.250
1641937088.531,19.043,27.832,143.555,47.852,-3.906
1641937088.535,11.719,25.391,115.234,35.156,24.902
1641937088.539,21.973,23.438,5.859,17.090,24.902
1641937088.543,33.691,20.020,-60.059,28.320,4.883
1641937088.547,42.480,18.066,-28.809,49.805,23.438
1641937088.550,30.273,22.461,-95.703,29.297,10.254
1641937088.554,16.602,18.555,-266.602,7.812,-35.156
1641937088.558,36.133,21.973,-422.363,10.742,-52.246
1641937088.562,59.570,42.480,-79.102,33.203,12.695
1641937088.566,37.598,43.945,183.594,34.180,54.688
1641937088.570,15.137,34.668,26.367,3.418,16.602
1641937088.572,28.809,29.297,2.930,-0.977,6.348
1641937088.576,40.039,29.297,114.258,16.113,25.391
1641937088.580,32.227,30.762,140.137,22.949,38.574
1641937088.584,22.461,33.691,-5.371,9.277,-7.324
1641937088.588,34.180,38.086,11.719,6.348,-9.277
1641937088.592,39.551,36.133,-0.977,31.250,-9.277
1641937088.595,15.137,36.621,-81.055,29.785,-51.758
1641937088.599,-11.719,32.715,-276.855,10.254,-63.477
1641937088.603,-0.488,43.457,-218.262,7.812,-48.340
1641937088.607,15.137,43.945,276.855,13.672,18.066
1641937088.611,6.836,34.668,404.297,30.762,31.250
1641937088.615,-5.371,46.875,391.113,17.578,20.020
1641937088.617,1.953,56.641,439.941,2.441,14.160
1641937088.621,25.391,60.547,580.078,31.250,13.672
1641937088.625,23.926,60.059,596.680,47.852,59.082
1641937088.629,10.742,59.082,504.883,38.086,58.105
1641937088.633,-8.301,58.105,595.703,18.555,48.340
1641937088.637,-10.254,62.988,563.477,22.949,49.316
1641937088.640,8.789,67.871,399.902,39.062,28.320
1641937088.644,12.695,69.336,385.254,41.504,8.301
1641937088.648,3.418,78.125,752.930,27.344,44.922
1641937088.652,2.930,70.801,770.020,20.020,12.695
1641937088.656,25.879,68.359,486.328,36.133,-11.719
1641937088.660,31.250,79.102,573.242,48.828,47.852
1641937088.661,0.977,77.637,708.984,33.203,82.520
1641937088.665,-17.578,71.289,494.141,0.977,34.180
1641937088.669,0.977,71.777,279.297,5.859,-13.672
1641937088.673,4.883,71.289,278.809,8.789,2.930
1641937088.677,-31.738,62.988,248.535,-22.949,-12.207
1641937088.681,-60.547,55.664,8.789,-52.246,-37.598
1641937088.684,-60.547,50.293,-348.633,-61.523,1.953
1641937088.688,-51.758,54.688,-272.949,-50.781,12.695
1641937088.692,-60.547,50.781,-66.895,-51.270,2.441
1641937088.696,-67.871,40.039,-198.730,-73.242,6.836
1641937088.700,-51.758,42.969,-313.965,-84.961,17.090
1641937088.704,-25.879,49.316,-296.387,-67.383,17.578
1641937088.707,-30.273,47.852,-252.441,-46.387,-1.953
1641937088.711,-59.082,41.992,-463.379,-52.246,-35.156
1641937088.715,-54.199,45.898,-544.922,-61.523,-2.441
1641937088.719,-27.832,50.293,-318.359,-44.922,45.410
1641937088.723,-30.762,48.828,-213.379,-37.109,18.555
1641937088.727,-51.270,37.598,-526.855,-61.035,-31.250
1641937088.730,-47.363,39.062,-759.766,-78.125,-59.082
1641937088.734,-16.113,44.434,-504.395,-62.988,-42.969
1641937088.738,-4.395,28.320,-401.855,-34.180,-13.672
1641937088.742,-23.926,16.113,-556.152,-38.086,-3.418
1641937088.746,-29.785,20.508,-643.555,-56.641,-29.297
1641937088.750,-9.277,29.297,-459.961,-34.180,-33.691
1641937088.768,9.766,28.320,-339.844,-2.930,-15.137
1641937088.772,5.859,27.832,-386.719,-0.488,-2.930
1641937088.776,-4.883,19.531,-364.258,-15.137,21.484
1641937088.780,2.441,9.277,-363.281,-12.207,37.598
1641937088.784,16.602,6.348,-329.102,20.020,30.273
1641937088.788,12.207,-0.488,-410.645,26.855,19.531
1641937088.791,-6.836,-4.883,-495.605,3.418,11.719
1641937088.795,-0.488,-3.906,-262.695,-3.418,64.453
1641937088.799,19.531,0.000,-191.406,20.020,82.520
1641937088.803,19.531,10.742,-380.859,39.551,50.781
1641937088.807,12.207,30.762,-253.418,29.785,81.055
1641937088.811,18.066,25.879,-80.566,20.508,99.609
1641937088.812,40.039,11.230,-160.645,20.996,80.078
1641937088.816,49.805,14.160,-174.316,37.598,43.457
1641937088.820,39.551,18.555,-89.355,35.645,22.949
1641937088.824,35.156,17.578,-35.645,12.207,49.316
1641937088.828,54.199,8.301,-170.410,18.066,15.625
1641937088.832,72.266,4.883,-351.074,32.715,-24.414
1641937088.835,69.824,14.160,-315.430,31.250,0.488
1641937088.839,58.594,15.137,-240.234,20.996,34.668
1641937088.843,66.406,10.254,-366.211,22.461,8.789
1641937088.847,84.961,5.859,-569.336,41.504,-45.410
1641937088.851,86.426,6.836,-242.188,51.758,-9.766
1641937088.855,64.453,0.977,-72.266,41.992,0.000
1641937088.856,57.617,-5.859,-167.969,36.621,-6.836
1641937088.860,71.777,-3.418,-104.492,56.641,20.020
1641937088.864,70.312,0.977,-27.832,73.730,51.270
1641937088.868,43.945,-6.348,-63.477,54.688,50.293
1641937088.872,32.715,-13.184,-86.426,44.922,42.969
1641937088.876,49.316,-15.625,-172.363,59.082,18.066
1641937088.879,57.129,-7.324,-159.668,77.148,28.320
1641937088.883,38.086,-9.277,-51.270,77.637,38.086
1641937088.887,18.066,-20.996,-312.012,52.246,9.766
1641937088.891,37.109,-5.859,-291.504,50.781,15.625
1641937088.895,58.594,9.277,21.484,70.801,13.672
1641937088.899,44.922,3.906,-45.410,70.801,-10.742
1641937088.901,34.668,-4.883,-148.926,48.828,-41.016
1641937088.905,50.781,-9.766,8.301,39.062,-33.691
1641937088.909,77.637,-13.184,109.863,64.453,-11.230
1641937088.913,77.148,-18.066,7.324,81.543,-9.766
1641937088.917,56.152,-13.184,-18.066,68.359,13.184
1641937088.921,57.129,-13.672,-20.996,55.664,36.621
1641937088.924,81.055,-6.348,-94.727,65.430,18.555
1641937088.928,81.543,-0.488,-190.918,84.473,-4.395
1641937088.932,60.059,1.953,-234.863,72.266,-1.953
1641937088.936,53.223,5.371,55.664,48.828,50.781
1641937088.940,62.988,-6.836,165.039,50.293,62.500
1641937088.944,67.383,-7.812,57.129,61.523,26.855
1641937088.946,42.969,-1.953,82.031,54.199,9.766
1641937088.950,20.508,8.301,158.691,34.668,7.812
1641937088.954,21.973,9.766,131.836,39.062,27.832
1641937088.958,41.016,7.812,50.781,66.406,25.391
1641937088.962,41.504,11.230,97.656,76.172,24.414
1641937088.966,11.719,9.766,43.457,60.547,2.930
1641937088.969,5.859,6.348,-87.402,57.617,9.277
1641937088.973,14.160,5.371,-84.961,74.707,-4.395
1641937088.977,-0.488,7.812,105.469,75.684,-20.996
1641937088.981,-20.996,3.418,257.812,50.293,-30.762
1641937088.985,-12.207,2.441,114.746,37.598,-40.527
1641937088.989,19.531,0.977,-67.871,43.457,-42.969
1641937089.006,41.016,6.836,146.973,54.199,-6.836
1641937089.010,33.203,8.789,344.727,48.340,33.203
1641937089.014,24.414,4.883,94.727,32.715,17.090
1641937089.018,45.410,10.254,-10.254,41.016,12.207
1641937089.022,70.312,20.020,251.465,60.059,43.457
1641937089.026,65.918,20.508,227.539,65.430,45.898
1641937089.029,54.688,17.578,-82.520,41.504,23.438
1641937089.033,70.312,21.973,-219.238,37.598,-9.277
1641937089.037,87.402,30.762,141.113,72.754,6.348
1641937089.041,67.383,23.438,247.070,81.055,-4.883
1641937089.045,42.480,19.531,138.672,62.500,-17.090
1641937089.049,40.527,18.555,182.129,43.945,36.621
1641937089.036,49.805,20.996,239.258,50.781,33.203
1641937089.040,43.945,14.648,254.883,65.430,41.504
1641937089.044,16.602,7.812,127.441,40.039,63.965
1641937089.048,9.277,11.230,102.539,14.648,60.059
1641937089.052,30.762,6.348,222.168,24.902,78.613
1641937089.056,31.250,0.488,94.238,44.922,54.688
1641937089.059,9.766,0.000,-77.148,42.480,16.602
1641937089.063,9.277,1.953,-33.203,18.066,9.766
1641937089.067,31.250,8.301,92.773,20.508,12.207
1641937089.071,46.875,11.719,98.633,36.621,18.066
1641937089.075,29.297,6.836,-253.418,33.203,-2.441
1641937089.079,20.996,11.719,-240.723,24.414,16.113
1641937089.096,44.922,20.508,124.023,27.832,13.672
1641937089.100,63.965,17.090,85.449,48.340,-25.391
1641937089.104,63.965,18.555,48.340,51.758,-5.371
1641937089.108,50.781,26.855,155.762,34.668,6.348
1641937089.112,48.340,30.762,216.309,24.414,-12.695
1641937089.116,56.641,23.438,-7.812,30.273,4.883
1641937089.119,53.711,23.926,-87.891,42.969,51.758
1641937089.123,35.645,32.715,113.770,31.250,84.961
1641937089.127,19.043,23.438,166.016,18.555,85.938
1641937089.131,31.738,12.207,-23.926,27.832,53.711
1641937089.135,47.363,20.508,-114.258,47.363,61.523
1641937089.139,37.109,32.715,212.402,48.340,80.566
1641937089.142,27.344,25.391,275.391,26.855,35.645
1641937089.146,43.457,21.973,157.715,27.832,-5.371
1641937089.150,55.176,21.973,168.945,49.316,0.000
1641937089.154,48.340,20.508,275.391,54.199,56.641
1641937089.158,36.133,12.695,220.703,32.715,66.406
1641937089.162,38.086,6.836,36.621,22.949,38.574
1641937089.165,54.199,13.184,1.953,45.410,32.715
1641937089.169,52.734,13.672,194.336,54.688,6.836
1641937089.173,34.668,7.324,242.188,39.551,30.762
1641937089.177,33.691,1.465,-129.883,25.879,-2.441
1641937089.181,56.152,17.090,-97.168,38.086,3.906
1641937089.185,61.035,23.926,201.172,62.500,57.129
1641937089.217,41.016,14.648,82.031,56.152,26.367
1641937089.221,36.133,19.043,-27.832,44.922,20.020
1641937089.225,54.688,28.320,191.895,54.688,80.566
1641937089.229,66.406,17.090,279.785,70.312,90.820
1641937089.233,54.688,8.301,151.367,67.871,34.668
1641937089.237,34.668,12.695,-48.340,44.434,20.508
1641937089.240,42.480,17.090,-60.547,41.016,29.785
1641937089.244,51.758,23.926,145.020,51.270,37.109
1641937089.248,34.180,20.020,2.441,44.922,19.531
1641937089.252,19.043,20.996,-192.871,21.484,-3.418
1641937089.256,28.320,36.133,91.309,10.254,-14.648
1641937089.260,48.340,28.809,194.824,25.391,23.926
1641937089.247,56.641,21.484,144.043,33.203,59.082
1641937089.251,36.621,21.484,108.398,11.719,67.383
1641937089.255,27.832,27.832,114.746,-0.977,60.059
1641937089.259,51.758,35.156,176.270,15.137,28.809
1641937089.263,56.152,30.273,97.656,37.598,48.828
1641937089.267,29.785,29.785,21.484,31.738,24.414
1641937089.270,16.602,32.227,43.945,6.348,-14.160
1641937089.274,31.738,33.691,62.988,16.113,-0.488
1641937089.278,42.480,32.715,57.617,36.621,38.574
1641937089.282,28.320,33.691,124.023,29.297,25.391
1641937089.286,16.113,33.203,187.500,12.207,2.441
1641937089.290,20.020,28.320,89.355,9.766,23.438
1641937089.292,24.414,36.621,33.203,31.738,33.203
1641937089.296,18.066,41.016,163.086,39.551,45.898
1641937089.300,-4.883,34.180,225.098,21.973,54.688
1641937089.304,-9.277,16.602,49.805,9.277,47.363
1641937089.308,8.789,8.301,-347.168,24.902,30.273
1641937089.312,20.996,35.156,-225.098,54.688,35.645
1641937089.315,4.883,38.086,13.184,39.551,23.438
1641937089.319,-15.625,26.855,5.371,3.418,41.016
1641937089.323,7.812,29.785,181.641,9.766,27.344
1641937089.327,28.809,35.156,424.805,28.320,20.996
1641937089.331,7.324,38.086,623.535,22.461,71.777
1641937089.335,-8.789,37.598,432.129,4.883,37.109
1641937089.323,33.203,61.035,366.211,22.949,-30.762
1641937089.327,75.684,73.730,755.371,50.781,0.000
1641937089.331,48.828,60.547,825.684,54.688,9.766
1641937089.335,8.789,62.012,781.250,25.391,-7.812
1641937089.339,24.414,66.895,834.961,19.531,33.203
1641937089.343,53.223,76.172,846.191,63.965,78.125
1641937089.346,36.621,80.078,752.441,67.383,77.148
1641937089.350,8.789,81.543,667.969,36.621,62.988
1641937089.354,32.227,96.191,730.469,35.645,57.617
1641937089.358,43.457,114.746,812.500,47.852,44.922
1641937089.362,9.766,119.141,746.582,47.363,19.043
1641937089.366,-26.855,116.211,347.168,15.137,16.113
1641937089.383,-39.551,133.301,283.691,-20.508,45.898
1641937089.387,-19.043,143.066,588.867,-15.625,72.754
1641937089.391,-20.020,135.742,462.402,-8.301,46.875
1641937089.395,-47.852,131.836,360.352,-31.250,78.125
1641937089.399,-64.941,125.977,344.727,-71.777,68.359
1641937089.403,-72.266,118.652,155.762,-85.449,50.781
1641937089.406,-72.266,109.375,-186.523,-74.219,46.875
1641937089.410,-81.543,101.562,-426.270,-80.078,15.137
1641937089.414,-92.285,95.215,-268.555,-100.098,32.227
1641937089.418,-86.914,87.402,-287.109,-112.793,29.785
1641937089.422,-70.312,85.938,-505.859,-93.750,12.695
1641937089.426,-74.707,84.961,-480.469,-81.055,42.969
1641937089.412,-97.168,73.242,-414.551,-94.238,64.453
1641937089.416,-93.750,60.059,-474.121,-101.074,40.039
1641937089.420,-65.918,47.363,-506.348,-82.520,36.621
1641937089.424,-48.828,38.574,-472.168,-52.734,66.406
1641937089.428,-61.035,33.203,-385.742,-52.734,94.727
1641937089.432,-67.871,29.297,-518.066,-62.012,129.395
1641937089.435,-41.992,27.344,-695.801,-48.828,111.328
1641937089.439,-18.066,34.668,-585.938,-23.926,49.805
1641937089.443,-22.461,35.156,-400.879,-7.812,64.453
1641937089.447,-31.738,15.137,-432.617,-22.461,99.609
1641937089.451,-18.555,0.488,-729.004,-32.715,83.984
1641937089.455,12.207,11.719,-558.105,-6.836,75.195
1641937089.458,8.789,9.277,-277.832,6.836,114.746
1641937089.462,-14.648,3.418,-537.598,-6.836,75.195
1641937089.466,-0.977,8.789,-576.172,-5.859,52.246
1641937089.470,24.414,13.672,-285.156,26.855,118.164
1641937089.474,31.250,12.207,-164.062,52.734,141.113
1641937089.478,15.625,-5.371,-397.461,45.898,122.070
1641937089.481,27.344,-1.953,-479.004,36.133,91.309
1641937089.485,62.500,12.207,-181.641,54.199,89.844
1641937089.489,70.312,9.277,-31.250,72.754,117.676
1641937089.493,58.105,2.930,-159.668,64.941,104.004
1641937089.497,54.688,4.883,-189.941,55.664,112.793
1641937089.501,82.520,0.000,-19.531,69.336,118.164
1641937089.518,104.492,-4.395,-0.977,89.355,88.867
1641937089.522,101.074,9.277,-83.984,92.773,49.805
1641937089.526,95.703,14.648,-47.852,77.148,55.176
1641937089.530,100.098,14.648,-68.848,73.730,58.594
1641937089.534,114.258,15.625,-104.004,99.121,47.852
1641937089.538,100.098,7.812,-262.207,107.910,20.508
1641937089.541,73.730,17.090,-247.070,91.309,23.438
1641937089.545,79.102,24.414,43.457,78.613,54.199
1641937089.549,81.055,10.742,-31.250,89.355,47.363
1641937089.553,62.012,6.836,-177.246,96.191,45.410
1641937089.557,34.668,12.695,-14.648,72.266,58.594
1641937089.561,25.391,7.812,69.336,51.270,89.355
1641937089.562,45.898,7.324,32.715,49.316,124.023
1641937089.566,44.922,10.742,85.938,56.641,143.555
1641937089.570,29.785,15.137,145.020,50.781,134.277
1641937089.574,23.438,10.254,88.379,24.414,99.121
1641937089.578,37.109,-0.488,-35.156,25.391,54.199
1641937089.582,58.105,1.465,-87.402,52.734,72.754
1641937089.585,53.711,13.184,-42.480,57.617,90.332
1641937089.589,32.715,18.555,-84.473,45.410,19.043
1641937089.593,33.203,17.090,-109.375,45.410,-9.766
1641937089.597,57.129,20.020,0.000,70.801,11.719
1641937089.601,58.594,26.367,145.508,76.172,62.988
1641937089.605,36.621,25.391,223.145,53.223,57.129
1641937089.607,25.391,9.766,-16.602,47.363,9.277
1641937089.611,44.922,14.160,-190.918,55.664,-23.926
1641937089.615,54.199,34.668,171.387,66.895,-22.949
1641937089.619,29.297,20.020,236.328,47.852,1.465
1641937089.623,25.391,15.137,50.781,23.926,-5.371
1641937089.627,47.363,26.855,15.625,46.387,-16.113
1641937089.630,54.688,30.273,66.406,66.895,48.340
1641937089.634,41.992,27.344,111.816,57.617,66.895
1641937089.638,32.715,20.996,-156.250,38.086,-3.906
1641937089.642,54.688,24.414,-218.750,34.180,-5.371
1641937089.646,82.520,26.367,88.379,59.570,21.484
1641937089.650,78.125,23.438,87.891,79.102,40.039
1641937089.652,61.523,29.785,-69.824,62.012,29.297
1641937089.656,71.289,36.621,55.176,38.574,54.688
1641937089.660,91.797,32.227,145.020,54.688,71.289
1641937089.664,92.285,33.203,88.867,71.777,93.750
1641937089.668,69.336,34.668,19.531,43.945,81.543
1641937089.672,64.453,35.156,-101.562,28.320,72.754
1641937089.675,83.008,37.109,-59.082,43.457,102.539
1641937089.679,72.266,25.879,-148.438,52.246,63.477
1641937089.683,41.016,31.250,-323.242,47.363,33.691
1641937089.687,38.574,49.316,-41.504,33.203,45.410
1641937089.691,46.875,42.969,153.320,37.598,47.363
1641937089.695,36.133,36.133,36.621,50.293,27.344
1641937089.712,14.160,44.434,4.883,46.875,44.922
1641937089.716,4.883,48.340,175.781,23.926,57.617
1641937089.720,29.297,41.504,109.375,23.926,19.531
1641937089.724,53.711,41.016,-38.574,56.641,26.855
1641937089.728,25.879,48.340,32.227,41.504,62.988
1641937089.732,-0.977,42.480,26.367,7.324,41.016
1641937089.735,22.949,33.203,-83.984,7.812,14.160
1641937089.739,43.945,38.574,-265.137,24.902,23.926
1641937089.743,45.898,49.316,-149.414,39.551,69.336
1641937089.747,44.434,49.316,179.199,30.762,67.383
1641937089.751,46.387,40.039,75.195,14.160,28.320
1641937089.755,73.242,41.992,39.062,34.180,61.035
1641937089.742,81.543,48.340,184.570,60.059,81.543
1641937089.746,49.805,39.062,183.105,49.805,57.617
1641937089.750,31.738,29.297,1.953,32.227,18.555
1641937089.754,41.016,28.320,-72.754,41.992,5.859
1641937089.758,52.246,30.762,149.414,58.105,81.543
1641937089.762,38.574,24.902,99.609,58.105,83.984
1641937089.765,25.391,17.578,-99.609,43.457,55.176
1641937089.769,31.738,25.879,-23.926,41.504,62.500
1641937089.773,46.875,37.109,112.305,66.895,57.617
1641937089.777,49.805,40.039,205.566,81.055,37.598
1641937089.781,28.320,28.809,-76.660,65.430,33.691
1641937089.785,27.832,28.809,-315.918,53.711,86.426
1641937089.801,46.387,40.527,51.270,75.195,107.422
1641937089.805,27.344,33.691,178.711,94.727,68.359
1641937089.809,-7.812,32.227,13.672,69.824,13.184
1641937089.813,-5.859,40.039,10.742,42.480,39.062
1641937089.817,15.137,33.691,104.004,37.109,49.805
1641937089.821,31.738,30.273,34.180,41.016,18.555
1641937089.824,20.508,31.738,-271.484,37.109,26.855
1641937089.828,9.766,35.645,-294.922,13.184,46.387
1641937089.832,32.227,47.363,113.770,21.973,97.656
1641937089.836,49.805,44.434,156.738,53.711,89.844
1641937089.840,46.875,46.875,105.469,51.758,82.031
1641937089.844,35.645,46.875,176.758,34.668,92.285
1641937089.847,55.176,38.574,220.703,36.621,101.562
1641937089.851,74.707,27.344,97.656,52.734,66.895
1641937089.855,59.082,35.156,73.242,58.594,62.988
1641937089.859,33.203,40.039,159.180,45.898,41.504
1641937089.863,24.902,36.621,189.453,41.016,38.574
1641937089.867,37.109,32.227,-19.043,50.293,81.055
1641937089.870,34.180,29.297,-172.363,59.570,45.410
1641937089.874,7.324,31.250,95.215,40.039,55.664
1641937089.878,-9.766,23.438,143.555,10.254,47.852
1641937089.882,-1.465,15.137,-155.273,13.184,-21.973
1641937089.886,14.648,21.484,-384.277,32.715,-23.438
1641937089.890,9.766,42.480,-68.359,33.691,5.859
1641937089.892,-5.371,43.457,117.676,12.695,0.000
1641937089.896,9.766,38.086,7.324,16.113,24.902
1641937089.900,38.086,42.480,78.125,41.504,70.312
1641937089.904,40.039,40.527,197.754,39.062,81.055
1641937089.908,25.879,31.250,174.805,17.578,72.266
1641937089.912,34.180,26.855,42.969,9.766,75.195
1641937089.915,56.641,33.203,-4.883,34.668,64.941
1641937089.919,57.617,44.922,133.789,56.152,11.230
1641937089.923,40.039,38.086,183.594,43.457,-23.438
1641937089.927,33.203,23.438,-165.039,27.344,-57.617
1641937089.931,50.293,39.551,-134.277,30.762,-34.668
1641937089.935,51.270,47.852,190.430,54.688,45.410
1641937089.953,22.949,33.203,85.449,44.434,59.082
1641937089.957,13.672,39.062,-67.383,19.043,20.996
1641937089.961,32.715,51.758,119.629,31.738,23.438
1641937089.965,39.551,49.805,298.340,54.199,59.082
1641937089.969,16.602,50.781,191.895,50.781,69.824
1641937089.973,3.906,50.293,-19.531,28.809,58.594
1641937089.976,26.855,55.664,-50.781,28.809,78.613
1641937089.980,55.176,62.012,158.691,52.734,101.562
1641937089.984,39.551,44.922,15.625,49.316,23.438
1641937089.988,14.160,40.527,-222.168,21.973,-12.695
1641937089.992,24.414,53.711,93.262,16.602,22.461
1641937089.996,47.852,34.180,198.242,41.016,41.992
1641937089.983,74.707,24.902,160.645,75.684,40.527
1641937089.987,56.152,38.574,81.543,56.152,27.344
1641937089.991,20.996,49.316,8.789,-0.977,30.273
1641937089.995,36.621,53.223,127.441,3.418,35.156
1641937089.999,45.410,48.340,109.375,34.668,25.879
1641937090.003,17.578,50.781,62.012,19.043,10.742
1641937090.006,7.812,47.852,95.215,-6.836,33.203
1641937090.010,26.367,40.527,84.961,0.488,48.340
1641937090.014,37.598,46.875,150.879,17.090,66.406
1641937090.018,26.367,54.688,254.395,13.672,54.688
1641937090.022,10.742,53.711,298.340,0.488,9.277
1641937090.026,15.625,49.316,218.750,-0.977,-12.695
1641937090.027,27.832,45.410,-176.758,17.090,-6.348
1641937090.031,28.809,57.129,-174.805,21.973,21.484
1641937090.035,18.555,57.617,188.477,4.395,38.086
1641937090.039,20.508,41.504,169.922,-8.789,54.199
1641937090.043,41.504,39.551,92.773,2.930,32.715
1641937090.047,48.340,48.340,37.109,24.902,17.090
1641937090.050,32.715,56.152,113.281,16.602,42.969
1641937090.054,17.578,46.387,67.383,-2.441,58.594
1641937090.058,26.367,38.574,-238.770,0.977,57.617
1641937090.062,41.504,44.922,39.551,20.508,74.219
1641937090.066,27.832,40.527,303.711,20.996,66.406
1641937090.070,19.043,41.992,210.449,-0.488,70.801
1641937090.072,27.832,43.457,250.488,1.465,90.820
1641937090.076,43.457,43.457,290.527,19.531,59.082
1641937090.080,32.715,47.852,279.297,22.461,68.359
1641937090.084,7.324,42.969,177.246,5.371,42.480
1641937090.088,23.926,41.992,216.797,4.883,10.254
1641937090.092,38.574,39.062,199.219,24.414,31.738
1641937090.095,25.879,32.715,80.078,21.973,22.461
1641937090.099,7.812,32.227,-247.559,5.859,-53.711
1641937090.103,17.578,45.410,-301.270,8.301,-57.129
1641937090.107,49.316,52.734,183.105,35.645,26.855
1641937090.111,47.363,41.504,228.516,51.758,42.969
1641937090.115,18.066,41.504,137.207,29.297,27.832
1641937090.117,12.207,51.758,199.707,11.719,18.555
1641937090.121,41.992,53.711,292.969,31.738,51.758
1641937090.125,46.387,37.109,224.121,41.992,34.180
1641937090.129,22.461,31.738,130.371,33.203,-11.719
1641937090.133,11.719,43.945,213.379,11.719,16.602
1641937090.137,28.809,44.434,159.180,12.207,4.395
1641937090.140,33.691,30.273,-25.391,39.551,6.836
1641937090.144,21.973,39.062,-172.852,38.086,15.625
1641937090.148,15.625,53.711,-6.348,18.066,0.488
1641937090.152,16.113,48.828,204.102,15.137,23.926
1641937090.156,26.367,51.270,146.973,35.156,54.688
1641937090.160,25.391,54.688,148.438,47.852,57.617
1641937090.162,6.836,53.223,267.578,28.320,69.824
1641937090.166,3.418,49.316,219.238,17.090,74.707
1641937090.170,23.926,46.875,85.938,29.785,55.176
1641937090.174,31.738,47.363,146.973,39.062,25.391
1641937090.178,15.137,46.875,226.074,30.762,-4.883
1641937090.182,11.719,44.434,86.914,16.602,-2.441
1641937090.185,29.785,45.410,-224.609,29.297,-29.297
1641937090.189,41.016,49.805,-70.801,41.992,-12.695
1641937090.193,25.391,46.387,255.859,39.062,30.762
1641937090.197,5.859,43.945,98.633,25.879,15.625
1641937090.201,22.949,47.363,57.617,28.809,15.137
1641937090.205,41.992,46.387,215.332,49.805,51.758
1641937090.208,27.344,40.039,222.168,49.805,59.082
1641937090.212,0.977,33.203,-22.949,33.691,64.453
1641937090.216,11.719,40.039,-77.148,26.367,76.660
1641937090.220,49.316,50.293,162.598,47.363,83.008
1641937090.224,49.316,52.734,259.277,58.105,102.539
1641937090.228,20.508,41.016,-64.453,31.250,28.809
1641937090.231,11.230,44.922,-247.070,14.648,-18.066
1641937090.235,28.809,58.594,119.629,24.414,54.199
1641937090.239,29.297,45.898,224.609,33.691,24.902
1641937090.243,18.555,40.527,15.625,22.949,-23.438
1641937090.247,15.137,45.898,-73.730,-0.488,-18.066
1641937090.251,27.832,53.711,83.496,3.906,4.395
1641937090.267,41.016,47.852,175.293,26.367,46.875
1641937090.271,33.691,35.156,80.566,26.855,39.551
1641937090.275,20.996,38.574,84.473,8.301,14.160
1641937090.279,21.973,33.203,42.969,5.859,2.930
1641937090.283,36.621,27.832,45.410,35.645,37.598
1641937090.287,28.320,29.297,-141.602,45.898,55.176
1641937090.290,10.254,39.551,-226.562,23.438,57.617
1641937090.294,14.160,41.016,129.883,13.184,69.824
1641937090.298,25.879,31.250,83.984,34.180,10.254
1641937090.302,23.438,33.203,-19.531,54.688,8.301
1641937090.306,16.602,42.969,153.320,44.922,83.008
1641937090.310,14.648,38.574,237.305,33.691,86.914
1641937090.311,30.273,33.691,162.598,50.293,84.473
1641937090.315,49.805,45.898,144.531,74.219,82.520
1641937090.319,26.367,55.664,230.957,50.293,115.723
1641937090.323,4.883,55.664,288.086,15.137,136.230
1641937090.327,28.809,50.781,177.246,26.367,62.988
1641937090.331,36.621,49.805,78.125,43.945,43.945
1641937090.334,24.414,56.152,81.055,33.691,62.012
1641937090.338,8.789,56.641,52.734,19.043,51.758
1641937090.342,7.812,47.363,-113.770,23.438,60.547
1641937090.346,23.926,57.617,-299.316,41.504,46.387
1641937090.350,24.414,72.754,14.648,38.086,30.273
1641937090.354,3.418,57.617,262.207,15.137,34.668
1641937090.356,0.977,51.270,93.750,6.348,22.949
1641937090.360,26.367,59.570,163.574,22.949,53.711
1641937090.364,25.879,56.641,331.543,37.598,63.965
1641937090.368,0.488,49.316,283.203,20.996,59.082
1641937090.372,-6.836,44.922,205.078,-4.395,45.898
1641937090.376,10.742,41.992,59.570,1.953,45.410
1641937090.379,26.855,51.270,84.961,22.461,68.359
1641937090.383,16.602,51.270,216.797,26.855,60.547
1641937090.387,3.906,39.062,-157.715,9.277,8.789
1641937090.391,24.902,46.875,-219.727,14.160,-22.461
1641937090.395,38.086,48.828,145.508,47.363,-20.020
1641937090.399,12.695,46.387,67.383,45.410,-5.859
1641937090.401,-6.348,51.270,-3.418,23.926,14.648
1641937090.405,5.859,50.293,187.500,8.789,17.578
1641937090.409,36.621,48.828,253.906,20.508,20.996
1641937090.413,43.457,48.340,189.941,32.227,34.180
1641937090.417,18.066,48.828,205.078,2.441,28.809
1641937090.421,14.160,46.387,113.770,-20.996,-1.465
1641937090.424,35.645,51.758,76.172,-17.090,-16.113
1641937090.428,28.320,51.758,115.723,1.465,-27.832
1641937090.432,4.395,51.270,178.223,5.371,-1.465
1641937090.436,5.859,53.223,305.176,-7.812,41.992
1641937090.440,25.879,48.828,279.297,-1.953,11.230
1641937090.444,33.691,44.922,39.551,11.230,-11.230
1641937090.448,13.672,41.504,-160.645,5.371,-29.785
1641937090.452,5.859,45.898,96.191,-5.859,-5.859
1641937090.456,17.090,41.504,218.750,-8.301,20.996
1641937090.460,26.367,41.016,64.453,10.742,4.395
1641937090.464,16.602,46.875,134.277,13.184,37.598
1641937090.468,-0.488,38.574,190.430,-1.465,39.551
1641937090.471,2.441,33.203,97.656,0.977,21.973
1641937090.475,23.438,30.273,-148.926,11.230,-38.086
1641937090.479,27.344,42.969,-45.410,15.137,-11.230
1641937090.483,16.113,51.270,331.055,2.441,69.336
1641937090.487,18.066,37.598,199.219,-1.953,29.297
1641937090.491,41.504,31.738,62.500,20.020,-15.137
1641937090.492,54.688,34.668,152.832,45.410,-3.418
1641937090.496,41.992,31.250,212.891,42.969,11.719
1641937090.500,28.320,26.367,78.613,21.484,-3.418
1641937090.504,41.992,34.668,-41.504,32.227,15.625
1641937090.508,53.711,37.598,91.309,49.805,30.762
1641937090.512,34.180,31.738,122.070,36.621,4.395
1641937090.515,21.484,39.062,-43.945,21.484,22.461
1641937090.519,29.785,44.434,-264.648,16.113,35.156
1641937090.523,48.340,47.852,-41.992,30.762,38.574
1641937090.527,36.621,42.480,219.238,40.039,49.316
1641937090.531,18.555,42.969,59.570,17.578,21.973
1641937090.535,28.320,48.340,39.062,10.742,18.555
1641937090.537,41.016,46.875,199.707,30.273,54.199
1641937090.541,28.320,39.062,175.781,42.969,39.551
1641937090.545,12.207,32.227,68.848,32.715,18.555
1641937090.549,16.602,36.133,90.332,25.391,13.672
1641937090.553,23.438,44.434,184.570,37.109,47.363
1641937090.557,18.066,36.621,91.309,38.086,28.320
1641937090.560,0.488,29.297,-267.090,23.438,-3.906
1641937090.564,3.418,41.992,-261.719,12.695,3.906
1641937090.568,6.348,43.457,115.234,0.977,24.902
1641937090.572,10.742,41.992,149.414,8.789,36.133
1641937090.576,21.484,43.945,93.262,8.789,23.926
1641937090.580,-3.906,41.992,229.980,-30.762,56.152
1641937090.596,-6.836,50.293,350.098,-23.438,60.059
1641937090.600,21.484,62.500,330.078,2.441,29.785
1641937090.604,14.648,72.266,296.387,-13.672,13.672
1641937090.608,-14.160,84.473,365.234,-20.020,11.230
1641937090.612,-4.395,92.773,415.039,-11.719,27.344
1641937090.616,25.391,86.426,201.660,3.906,30.273
1641937090.619,23.438,96.680,83.984,24.902,29.297
1641937090.623,-3.906,118.652,415.039,0.977,24.902
1641937090.627,-13.184,122.070,389.648,-27.344,9.766
1641937090.631,1.465,132.812,169.434,-10.742,22.949
1641937090.635,0.977,145.020,281.250,7.812,13.184
1641937090.639,-16.602,143.555,465.820,5.859,18.066
1641937090.642,-34.668,136.230,429.688,-24.902,29.785
1641937090.646,-34.668,131.348,214.844,-47.852,-7.324
1641937090.650,-26.855,128.418,138.184,-31.738,11.230
1641937090.654,-47.852,124.512,141.113,-31.738,28.320
1641937090.658,-63.965,121.582,43.945,-55.176,14.160
1641937090.662,-49.805,108.887,-170.898,-56.641,53.223
1641937090.665,-33.691,101.074,-322.266,-30.762,57.617
1641937090.669,-49.805,99.609,-238.281,-10.254,70.312
1641937090.673,-88.867,73.730,-335.938,-29.297,66.895
1641937090.677,-98.145,57.129,-699.707,-41.992,64.453
1641937090.681,-65.430,64.941,-594.727,-34.668,98.145
1641937090.685,-38.086,59.570,-424.805,-35.645,50.781
1641937090.686,-35.645,49.805,-545.898,-44.434,16.113
1641937090.690,-29.297,54.199,-564.941,-58.594,20.996
1641937090.694,-0.977,53.711,-374.023,-36.621,28.809
1641937090.698,11.230,41.992,-290.527,-1.465,34.668
1641937090.702,-4.395,33.203,-431.641,15.137,17.578
1641937090.706,-15.137,27.832,-577.637,12.207,-18.066
1641937090.709,6.348,20.508,-598.145,8.789,14.160
1641937090.713,32.227,21.973,-410.156,25.879,35.645
1641937090.717,19.043,20.020,-499.512,25.879,33.203
1641937090.721,2.930,23.438,-685.547,8.301,4.395
1641937090.725,18.555,49.805,-313.477,11.719,12.207
1641937090.729,33.203,53.711,-168.945,34.668,17.090
1641937090.733,30.273,50.781,-220.215,51.758,0.977
1641937090.737,11.719,46.387,-238.281,34.668,33.691
1641937090.741,9.277,44.434,-312.012,17.090,20.508
1641937090.745,36.621,46.387,-265.137,36.621,35.645
1641937090.749,46.875,36.621,-250.977,52.734,28.320
1641937090.753,26.367,31.250,-331.543,34.668,-7.324
1641937090.756,22.949,34.180,-315.918,12.207,24.902
1641937090.760,45.410,26.855,-160.645,27.832,23.438
1641937090.764,51.758,19.531,-365.234,49.805,-16.602
1641937090.768,49.316,30.762,-242.676,47.852,24.414
1641937090.772,50.781,28.320,52.734,39.062,72.266
1641937090.776,56.641,19.043,-46.875,41.992,71.777
1641937090.792,68.848,18.555,-14.160,65.918,39.062
1641937090.796,65.430,16.113,147.949,70.801,61.523
1641937090.800,56.641,10.742,166.016,54.199,69.824
1641937090.804,59.082,4.395,17.578,48.340,-4.883
1641937090.808,72.754,6.836,-19.531,61.523,9.277
1641937090.812,62.988,13.672,-29.785,70.801,15.625
1641937090.815,31.738,20.996,18.555,55.176,-23.926
1641937090.819,27.344,19.043,-62.988,41.016,-55.664
1641937090.823,58.594,17.578,-301.270,61.523,-60.547
1641937090.827,74.219,33.691,20.020,81.543,-5.859
1641937090.831,48.340,33.691,296.875,72.754,-21.973
1641937090.835,39.551,26.855,163.086,55.176,-20.508
1641937090.822,59.082,26.367,167.969,61.523,25.879
1641937090.826,72.266,21.484,315.430,79.590,42.480
1641937090.830,59.570,16.602,248.535,72.754,1.953
1641937090.834,51.758,21.973,153.320,55.664,2.930
1641937090.838,68.359,25.391,151.855,51.270,24.414
1641937090.842,83.496,29.297,68.848,70.801,6.836
1641937090.845,78.613,38.086,91.309,78.613,25.879
1641937090.849,57.617,39.551,86.426,57.129,60.059
1641937090.853,63.965,40.039,71.777,48.828,38.574
1641937090.857,84.961,35.645,258.789,70.801,-5.859
1641937090.861,78.125,23.438,307.617,81.543,-8.301
1641937090.865,51.758,14.648,-134.766,57.129,-32.715
1641937090.866,44.922,27.832,-152.344,36.621,-28.809
1641937090.870,62.500,36.621,273.438,50.781,11.719
1641937090.874,65.918,23.438,180.176,68.359,40.527
1641937090.878,48.828,20.996,154.785,64.453,45.410
1641937090.882,38.574,25.391,289.551,39.062,53.711
1641937090.886,48.828,17.578,204.590,42.969,20.508
1641937090.889,53.711,8.789,-7.324,69.336,-20.996
1641937090.893,42.480,13.672,-111.816,68.359,-12.207
1641937090.897,36.133,23.438,194.336,51.270,51.270
1641937090.901,43.945,17.578,318.848,38.574,52.734
1641937090.905,62.012,22.949,162.109,54.199,41.504
1641937090.909,56.641,41.016,220.215,72.266,64.941
1641937090.912,29.785,40.039,366.211,54.199,58.105
1641937090.916,29.785,31.738,294.922,33.203,18.066
1641937090.920,54.199,31.250,203.125,39.551,29.785
1641937090.924,58.105,28.809,254.883,52.246,64.453
1641937090.928,35.156,21.973,276.855,43.945,48.828
1641937090.932,23.438,25.391,155.273,29.785,26.367
1641937090.935,33.203,27.344,-141.113,35.645,2.441
1641937090.939,41.504,37.109,-70.312,39.551,24.414
1641937090.943,31.250,39.062,221.191,32.715,36.621
1641937090.947,13.672,23.926,93.750,19.531,9.277
1641937090.951,30.762,34.180,56.641,21.973,1.465
1641937090.955,55.664,46.875,219.727,44.434,29.297
1641937090.957,37.598,43.945,275.879,38.086,43.457
1641937090.961,5.859,36.621,48.340,13.672,2.930
1641937090.965,17.578,45.410,-31.738,17.090,7.812
1641937090.969,51.270,57.617,231.934,37.109,40.527
1641937090.973,52.734,47.363,305.664,48.828,36.621
1641937090.977,25.391,28.809,62.988,30.762,68.359
1641937090.980,19.043,24.902,-102.539,11.719,55.176
1641937090.984,41.016,36.621,158.691,33.691,-3.906
1641937090.988,44.922,40.527,288.574,53.223,6.836
1641937090.992,20.020,38.574,183.594,43.945,52.734
1641937090.996,14.160,37.109,157.227,21.973,54.688
1641937091.000,41.992,41.016,257.324,33.691,17.090
1641937091.032,47.852,41.016,274.902,56.641,2.441
1641937091.036,21.484,39.062,235.840,45.898,1.953
1641937091.040,4.883,41.504,213.867,22.949,26.367
1641937091.044,23.438,41.016,192.383,24.414,56.641
1641937091.048,45.410,40.527,199.219,47.363,42.969
1641937091.052,35.645,35.156,-46.875,53.223,10.742
1641937091.055,21.973,33.691,-207.031,32.227,-3.906
1641937091.059,28.809,36.133,118.164,21.484,20.020
1641937091.063,45.410,28.809,145.020,36.621,11.719
1641937091.067,50.781,30.762,12.695,52.734,7.812
1641937091.071,55.176,41.992,115.234,57.129,13.672
1641937091.075,63.477,36.621,221.191,48.340,40.527
1641937091.062,48.340,22.461,78.125,32.227,27.832
1641937091.066,36.621,23.926,52.734,29.785,-6.836
1641937091.070,34.180,30.762,130.859,30.762,15.625
1641937091.074,30.762,21.484,57.617,24.414,43.945
1641937091.078,39.551,13.184,-75.684,28.809,30.762
1641937091.082,47.852,23.438,-113.281,50.293,6.836
1641937091.085,34.668,26.855,-26.367,54.199,27.832
1641937091.089,32.715,20.508,-41.016,48.340,41.992
1641937091.093,55.664,18.066,-170.410,54.199,14.160
1641937091.097,73.730,26.367,-64.453,65.430,23.438
1641937091.101,62.012,33.691,193.848,72.266,41.016
1641937091.105,38.086,33.203,252.930,61.035,14.160
1641937091.107,34.668,25.391,-36.133,50.293,-33.203
1641937091.111,48.828,29.785,-268.555,61.035,-10.254
1641937091.115,54.688,44.434,104.492,80.566,59.082
1641937091.119,41.016,32.227,238.281,69.336,59.082
1641937091.123,31.250,20.020,106.445,46.875,48.340
1641937091.127,54.199,22.461,11.719,62.988,33.691
1641937091.130,69.824,32.227,-18.555,84.961,-6.348
1641937091.134,47.363,31.738,154.785,79.590,13.184
1641937091.138,42.969,15.137,-89.355,59.082,28.809
1641937091.142,65.430,22.949,-266.602,60.547,3.418
