timestamps,TP9,AF7,AF8,TP10,Right AUX
1642605567.753,47.363,29.785,71.289,46.387,-4.395
1642605567.757,59.570,33.203,88.379,63.965,51.270
1642605567.761,34.668,30.273,42.480,46.387,38.574
1642605567.765,4.883,24.414,61.035,16.113,13.184
1642605567.769,9.766,29.297,69.824,17.578,27.344
1642605567.773,8.301,26.855,-63.477,20.020,6.348
1642605567.777,2.930,26.855,-157.227,16.602,-13.184
1642605567.780,0.000,27.344,-156.738,6.348,-16.602
1642605567.784,1.953,28.809,-120.605,-0.977,10.254
1642605567.788,9.277,30.273,-352.051,7.812,-12.207
1642605567.792,7.812,27.344,-459.473,11.230,-1.953
1642605567.796,8.789,28.320,-66.406,9.766,47.363
1642605567.798,9.277,25.879,-23.926,11.719,6.836
1642605567.802,15.625,25.879,-62.988,19.531,22.461
1642605567.806,18.066,29.297,30.273,27.832,79.102
1642605567.810,4.883,29.785,70.312,21.973,64.941
1642605567.814,-0.488,26.855,-0.977,13.672,46.387
1642605567.818,8.301,24.414,-164.062,20.996,31.250
1642605567.822,12.695,26.367,-205.078,27.344,60.059
1642605567.825,6.836,28.320,-17.578,20.508,68.359
1642605567.829,-1.953,24.902,-154.785,10.254,24.414
1642605567.833,1.953,26.855,-402.344,14.648,27.344
1642605567.837,19.043,31.250,-168.457,23.926,43.945
1642605567.841,16.113,27.344,-47.852,21.973,62.012
1642605567.843,4.395,26.855,-135.742,13.672,86.914
1642605567.847,15.625,29.785,-94.727,16.113,68.359
1642605567.851,26.367,32.715,81.055,27.344,97.656
1642605567.855,15.625,30.273,22.949,22.461,72.754
1642605567.859,0.000,27.832,-18.066,11.230,65.918
1642605567.863,0.000,26.855,-105.469,9.766,80.566
1642605567.867,8.789,28.809,-137.207,19.531,62.500
1642605567.870,11.230,30.762,7.324,23.926,50.293
1642605567.874,9.766,29.785,-243.652,16.113,-16.602
1642605567.878,9.766,32.715,-301.758,14.648,-40.039
1642605567.882,19.043,36.133,51.270,22.949,-12.207
1642605567.886,23.926,38.574,73.730,32.227,16.113
1642605567.888,19.043,35.156,41.016,31.250,40.039
1642605567.892,11.719,27.832,1.465,20.508,16.602
1642605567.896,14.160,27.832,80.566,20.508,20.020
1642605567.900,17.578,28.320,21.973,29.297,64.453
1642605567.904,13.184,30.273,-143.066,29.785,91.309
1642605567.908,6.836,30.762,-56.641,19.043,62.500
1642605567.912,5.371,28.809,-7.324,13.184,62.012
1642605567.915,11.230,32.715,-104.492,22.461,50.293
1642605567.919,11.230,33.691,-291.016,24.902,10.742
1642605567.923,1.953,30.273,-15.625,12.695,14.648
1642605567.927,-2.930,26.367,119.629,1.465,-6.348
1642605567.931,1.465,23.926,20.996,7.324,5.859
1642605567.933,2.441,26.367,95.215,18.555,41.992
1642605567.937,-3.418,28.809,189.941,10.742,73.730
1642605567.941,-3.418,27.832,145.508,7.812,79.590
1642605567.945,0.977,25.391,36.621,14.648,58.594
1642605567.949,5.859,28.809,-62.012,20.996,3.906
1642605567.953,2.930,31.738,-118.652,22.949,-5.859
1642605567.957,-6.348,26.367,-81.055,16.113,48.828
1642605567.960,-9.766,22.461,-315.918,13.672,47.363
1642605567.964,-1.465,25.391,-377.930,19.531,52.246
1642605567.968,3.418,32.715,-1.953,24.902,49.316
1642605567.972,-0.488,33.691,28.809,20.508,38.086
1642605567.976,2.441,32.227,-19.531,20.996,43.945
1642605568.008,8.789,29.785,103.027,24.902,20.020
1642605568.012,11.719,31.250,182.617,22.949,35.156
1642605568.016,10.254,31.250,88.379,22.461,70.801
1642605568.020,11.719,29.785,3.906,20.996,92.285
1642605568.024,20.020,29.297,119.629,24.902,93.750
1642605568.028,25.879,25.879,21.973,29.297,88.867
1642605568.032,22.949,26.855,-237.305,21.484,62.988
1642605568.035,14.160,28.809,-465.820,8.789,4.883
1642605568.039,19.531,30.273,-229.492,7.324,24.414
1642605568.043,29.785,30.762,141.602,18.066,73.242
1642605568.047,29.785,36.133,98.145,19.043,57.617
1642605568.051,26.367,38.086,8.789,9.766,28.320
1642605568.023,29.297,36.621,100.098,10.254,43.457
1642605568.027,33.691,33.691,191.895,18.066,42.969
1642605568.031,23.926,33.203,107.422,15.137,25.391
1642605568.035,16.113,29.785,65.430,5.859,31.738
1642605568.039,20.996,25.391,130.371,7.324,19.043
1642605568.043,22.461,27.344,-15.625,15.625,9.277
1642605568.047,25.879,29.785,-126.953,24.902,20.996
1642605568.050,18.066,28.320,9.766,20.020,48.828
1642605568.054,8.301,29.297,102.539,11.719,27.832
1642605568.058,17.578,30.762,-2.441,19.531,-18.066
1642605568.062,19.043,27.344,-92.773,29.785,-13.184
1642605568.066,11.719,24.902,-4.395,26.367,17.090
1642605568.083,14.648,26.855,77.148,23.926,32.227
1642605568.087,25.879,28.809,51.270,31.250,78.125
1642605568.091,28.320,24.902,-354.980,36.133,28.809
1642605568.095,20.508,22.461,-345.703,29.785,-46.875
1642605568.099,17.090,25.391,8.789,21.973,-20.508
1642605568.103,16.602,26.855,-181.641,19.043,-18.066
1642605568.107,26.367,29.297,-348.145,29.785,-11.230
1642605568.110,32.227,31.738,-52.734,33.691,24.902
1642605568.114,19.531,29.785,79.590,20.996,-10.254
1642605568.118,33.691,34.180,-55.176,26.367,-18.555
1642605568.122,56.641,36.621,6.348,46.875,29.785
1642605568.126,33.203,27.832,155.273,31.738,19.531
1642605568.128,3.906,22.461,37.598,2.930,-9.277
1642605568.132,5.371,19.043,-183.594,6.836,-23.438
1642605568.136,14.160,20.020,-65.430,12.207,-23.926
1642605568.140,17.090,22.461,102.051,14.160,-22.461
1642605568.144,16.602,24.414,78.125,14.160,4.883
1642605568.148,13.672,27.344,-35.645,4.395,62.012
1642605568.152,19.043,27.344,-114.746,3.418,71.289
1642605568.155,27.344,27.832,41.504,9.277,30.762
1642605568.159,20.996,29.297,145.996,11.230,-3.418
1642605568.163,10.742,28.809,-188.477,0.977,-40.527
1642605568.167,11.719,27.344,-238.281,0.977,-35.645
1642605568.171,20.020,26.855,145.996,18.555,26.855
1642605568.172,23.438,29.785,105.957,26.855,57.129
1642605568.176,11.230,33.203,-14.648,23.926,104.980
1642605568.180,8.301,29.785,81.543,20.020,90.332
1642605568.184,26.367,28.809,25.879,32.715,10.254
1642605568.188,30.273,31.738,-100.098,43.457,0.488
1642605568.192,22.949,28.320,-161.133,38.086,34.668
1642605568.196,19.531,27.344,-148.926,34.668,27.832
1642605568.199,21.973,27.832,50.781,33.691,13.672
1642605568.203,23.926,25.879,-7.324,35.156,8.301
1642605568.207,16.602,22.949,-283.203,34.180,-39.062
1642605568.211,10.742,25.879,-65.918,24.902,-10.254
1642605568.215,17.578,28.809,111.816,25.879,56.152
1642605568.218,20.996,29.785,37.109,25.879,55.176
1642605568.222,11.230,31.250,27.344,21.484,31.738
1642605568.226,6.348,32.227,127.441,15.625,62.012
1642605568.230,12.207,29.785,108.887,12.695,42.480
1642605568.234,19.531,27.344,22.949,18.555,24.414
1642605568.238,17.090,27.344,-44.434,20.996,76.172
1642605568.242,15.137,28.809,-122.559,17.090,55.176
1642605568.245,11.719,27.344,-127.930,15.137,32.715
1642605568.249,15.137,24.414,-317.871,18.555,29.297
1642605568.253,19.043,29.297,-384.277,23.926,14.648
1642605568.257,14.160,34.668,-49.316,23.438,20.508
1642605568.261,13.184,34.180,-30.762,17.090,7.812
1642605568.263,21.973,28.320,-74.219,23.926,35.156
1642605568.267,28.809,26.367,78.613,35.645,34.180
1642605568.271,21.484,28.320,155.273,39.551,0.000
1642605568.275,13.184,26.855,59.082,28.809,40.039
1642605568.279,17.578,28.320,-29.785,21.484,60.547
1642605568.283,28.809,27.344,-107.422,30.273,19.043
1642605568.287,18.066,24.414,-119.629,27.832,24.902
1642605568.290,5.371,24.902,-152.832,21.973,2.441
1642605568.294,13.672,27.832,-455.078,19.043,-65.430
1642605568.298,29.297,32.227,-246.582,21.484,-15.137
1642605568.302,32.227,34.668,92.285,29.297,2.930
1642605568.306,19.043,33.203,-96.680,22.949,-16.602
1642605568.307,9.766,30.762,-172.363,10.742,1.953
1642605568.311,16.602,30.273,41.504,11.230,18.555
1642605568.315,28.320,29.785,100.098,17.578,10.254
1642605568.319,20.508,31.250,68.848,14.160,11.719
1642605568.323,11.719,27.832,67.871,5.859,19.531
1642605568.327,15.137,26.855,-57.617,6.836,-16.602
1642605568.331,25.391,25.391,-46.875,12.695,-27.344
1642605568.334,30.273,21.973,-223.145,23.438,-2.930
1642605568.338,31.738,24.414,-321.777,28.809,17.578
1642605568.342,35.645,37.598,37.109,15.625,3.418
1642605568.346,28.320,41.504,118.652,3.418,36.621
1642605568.350,29.297,33.691,50.781,16.113,79.102
1642605568.368,36.621,36.621,103.516,27.832,70.801
1642605568.372,31.250,35.645,262.695,20.996,56.152
1642605568.376,30.762,30.273,126.465,23.438,25.391
1642605568.380,35.156,33.203,6.348,33.691,3.418
1642605568.384,24.902,33.203,164.551,26.855,-15.137
1642605568.388,22.949,34.180,79.590,22.949,14.648
1642605568.392,30.273,35.156,-134.766,25.391,12.207
1642605568.395,36.133,34.180,-200.684,29.785,7.812
1642605568.399,37.598,37.109,32.227,25.391,44.434
1642605568.403,33.203,41.016,135.742,16.602,18.066
1642605568.407,31.250,39.551,11.719,18.066,-14.648
1642605568.411,34.180,37.109,6.836,24.414,1.953
1642605568.398,25.391,35.156,123.535,26.367,20.996
1642605568.402,13.184,33.203,190.430,17.090,40.527
1642605568.406,20.020,28.320,51.758,15.137,28.809
1642605568.410,36.621,26.855,8.301,30.762,-11.230
1642605568.414,36.621,30.273,121.582,33.203,-0.488
1642605568.418,22.461,28.320,-49.316,20.996,7.324
1642605568.422,23.438,29.785,-164.062,16.113,38.086
1642605568.425,35.645,32.227,16.113,25.391,31.250
1642605568.429,36.133,27.344,127.930,30.762,17.578
1642605568.433,24.902,25.879,152.344,20.996,51.758
1642605568.437,17.578,25.879,-185.547,14.648,12.207
1642605568.441,19.043,23.926,-336.914,13.672,-21.973
1642605568.458,22.461,25.879,92.285,20.996,32.227
1642605568.462,19.531,28.809,57.129,25.879,51.270
1642605568.466,13.184,31.738,-35.156,16.602,59.082
1642605568.470,12.207,30.273,96.680,20.508,32.227
1642605568.474,20.996,27.344,137.695,32.715,-9.277
1642605568.478,16.113,29.297,-52.246,30.273,24.902
1642605568.482,1.953,28.320,-354.492,20.508,34.668
1642605568.485,5.859,29.785,-144.043,17.090,6.348
1642605568.489,16.113,32.227,136.230,27.832,44.922
1642605568.493,20.020,28.320,8.301,31.250,64.453
1642605568.497,16.602,27.832,-121.582,19.531,11.230
1642605568.501,18.066,32.715,27.832,19.531,26.367
1642605568.518,28.320,33.691,121.582,29.297,66.895
1642605568.522,30.273,33.203,58.105,33.203,51.758
1642605568.526,19.531,31.250,14.648,20.020,33.691
1642605568.530,13.184,28.809,98.145,14.160,61.035
1642605568.534,19.043,29.297,94.727,22.949,63.477
1642605568.538,28.320,30.273,-94.238,28.320,43.945
1642605568.542,26.855,30.273,-131.836,30.762,29.785
1642605568.545,20.020,31.250,-31.738,22.949,9.277
1642605568.549,22.461,30.273,-82.031,21.973,6.348
1642605568.553,28.320,27.344,-328.125,30.273,50.781
1642605568.557,20.508,26.367,-412.109,26.367,0.977
1642605568.561,11.230,25.391,1.953,14.160,-14.648
1642605568.548,11.230,26.367,80.078,12.207,63.965
1642605568.552,18.066,26.855,-5.859,25.879,75.684
1642605568.556,17.578,25.879,102.539,32.715,86.426
1642605568.560,8.301,25.879,110.352,25.391,69.824
1642605568.564,14.160,24.902,44.922,23.926,78.613
1642605568.568,25.391,24.414,-92.285,26.855,92.285
1642605568.572,25.879,27.832,-72.266,33.691,79.102
1642605568.575,16.602,31.738,106.934,32.715,78.613
1642605568.579,13.672,29.297,-53.223,25.391,40.527
1642605568.583,20.996,28.320,-111.816,24.902,55.176
1642605568.587,27.344,34.668,-31.738,31.738,55.176
1642605568.591,22.461,36.133,0.488,35.156,64.453
1642605568.593,9.277,31.738,-133.789,26.367,25.879
1642605568.597,10.254,25.879,-470.703,20.996,5.371
1642605568.601,18.555,25.391,-158.203,23.926,61.035
1642605568.605,17.578,26.367,102.051,27.344,54.199
1642605568.609,7.324,30.762,26.367,25.879,78.613
1642605568.613,3.906,30.273,-95.703,20.020,53.711
1642605568.617,17.578,28.809,-188.477,24.414,2.441
1642605568.620,23.438,35.645,-41.504,30.273,26.855
1642605568.624,14.160,34.180,-248.047,22.461,4.395
1642605568.628,10.742,32.227,-385.254,11.230,-41.016
1642605568.632,18.555,32.715,9.766,17.578,25.391
1642605568.636,26.367,33.691,14.648,33.691,69.824
1642605568.638,21.973,32.227,-38.574,31.250,55.664
1642605568.642,13.672,30.762,-49.316,17.090,30.273
1642605568.646,17.578,35.156,-68.848,19.531,41.504
1642605568.650,19.531,34.668,-35.156,27.344,64.453
1642605568.654,11.230,31.250,-141.113,26.367,34.668
1642605568.658,5.371,30.273,-174.316,14.648,36.621
1642605568.662,12.207,34.180,-142.090,12.207,72.754
1642605568.665,21.973,35.156,-145.020,22.461,39.551
1642605568.669,19.531,37.109,-237.305,27.832,32.715
1642605568.673,11.719,38.086,-15.625,20.020,47.852
1642605568.677,3.418,35.645,147.949,12.695,63.477
1642605568.681,4.883,35.156,52.734,18.066,41.504
1642605568.683,9.277,32.715,65.918,23.438,9.277
1642605568.687,7.324,32.227,88.379,19.043,23.438
1642605568.691,8.301,37.598,65.430,17.090,56.641
1642605568.695,17.090,37.109,38.574,23.926,48.340
1642605568.699,23.438,29.785,-64.941,32.715,50.293
1642605568.703,15.137,30.273,-80.566,29.297,47.852
1642605568.707,10.742,30.273,-66.895,17.578,20.996
1642605568.710,11.230,26.855,-312.988,19.043,6.348
1642605568.714,11.719,28.809,-283.203,21.484,15.625
1642605568.718,10.254,29.785,77.637,21.973,0.488
1642605568.722,2.930,28.320,103.027,22.949,6.348
1642605568.726,4.395,26.367,-98.145,18.066,8.789
1642605568.742,21.484,28.320,-16.113,22.949,41.504
1642605568.746,28.320,32.227,157.227,28.320,101.562
1642605568.750,16.602,33.691,6.348,17.090,102.539
1642605568.754,15.625,30.273,-96.191,13.672,59.570
1642605568.758,24.902,27.344,37.109,26.367,27.832
1642605568.762,24.414,29.297,34.668,35.645,43.945
1642605568.766,20.020,32.227,-170.410,29.297,50.781
1642605568.769,16.113,31.250,-379.395,14.160,31.250
1642605568.773,20.508,31.250,-149.902,20.508,60.547
1642605568.777,28.809,33.691,147.949,36.133,78.125
1642605568.781,19.043,32.715,-67.871,26.855,19.531
1642605568.785,13.672,28.809,-238.770,9.277,-0.488
1642605568.772,20.996,33.691,16.113,12.207,28.809
1642605568.776,25.391,35.156,85.449,24.902,4.395
1642605568.780,18.555,29.785,20.020,25.391,4.395
1642605568.784,11.719,33.203,-1.953,20.508,13.184
1642605568.788,17.578,36.133,60.547,16.602,5.859
1642605568.792,21.973,30.762,-90.332,23.438,-0.977
1642605568.796,23.926,28.809,-237.793,30.762,-20.508
1642605568.799,21.484,31.738,-53.711,22.461,17.578
1642605568.803,14.160,24.902,55.664,20.996,32.227
1642605568.807,32.227,19.531,79.590,41.504,36.133
1642605568.811,52.246,31.250,-316.895,59.082,17.090
1642605568.815,32.227,47.363,-477.539,31.738,-11.719
1642605568.833,4.395,51.270,-62.500,-6.348,13.672
1642605568.837,-11.719,47.852,-39.062,-20.996,41.992
1642605568.841,-4.883,48.340,-86.914,-13.672,57.129
1642605568.845,-8.789,54.688,12.207,-22.949,86.426
1642605568.849,-35.645,62.012,6.836,-55.664,63.965
1642605568.853,-38.086,64.453,-258.301,-66.406,-4.883
1642605568.857,-30.762,63.477,-498.047,-60.059,-27.344
1642605568.860,-30.762,68.359,-258.301,-59.082,-19.531
1642605568.864,-52.246,64.453,-28.809,-70.312,3.906
1642605568.868,-59.082,58.594,-214.844,-76.172,-8.789
1642605568.872,-43.457,58.105,-349.121,-64.941,-16.602
1642605568.876,-36.621,55.176,-190.430,-51.758,10.254
1642605568.877,-35.156,53.711,-222.168,-48.828,17.578
1642605568.881,-31.738,53.223,-462.891,-46.875,12.695
1642605568.885,-15.137,53.223,-396.973,-33.203,2.441
1642605568.889,-5.859,47.852,-211.914,-18.066,-11.230
1642605568.893,-11.230,43.945,-222.656,-17.090,0.488
1642605568.897,-15.137,41.992,-376.465,-20.996,-6.348
1642605568.901,-8.301,39.062,-460.449,-12.207,1.953
1642605568.904,1.465,41.992,-254.883,0.488,26.367
1642605568.908,-4.883,40.527,-161.621,-1.953,7.812
1642605568.912,-12.695,40.039,-521.484,-8.789,-19.531
1642605568.916,0.977,43.457,-551.270,-5.859,15.137
1642605568.920,9.766,40.527,-239.258,5.371,16.602
1642605568.922,2.441,34.668,-249.512,7.324,10.742
1642605568.926,-2.441,31.250,-256.348,3.418,40.039
1642605568.930,3.906,30.762,-178.223,3.906,26.367
1642605568.934,15.625,31.738,-243.652,11.230,12.695
1642605568.938,23.438,35.645,-337.402,25.879,36.621
1642605568.942,20.020,37.598,-375.000,27.344,75.684
1642605568.946,15.137,36.621,-347.656,19.043,91.309
1642605568.949,24.902,40.039,-160.645,21.973,46.387
1642605568.953,30.762,36.133,-246.094,29.297,-18.555
1642605568.957,21.973,32.227,-520.996,33.691,-4.883
1642605568.961,17.578,34.668,-254.395,27.832,56.641
1642605568.965,25.879,32.715,-99.609,23.438,52.734
1642605568.967,35.645,34.180,-172.363,26.367,42.480
1642605568.971,39.551,36.621,-136.719,27.832,56.152
1642605568.975,32.715,37.109,-70.312,21.484,89.355
1642605568.979,32.715,35.645,-85.938,16.113,57.129
1642605568.983,42.480,32.227,-167.969,24.414,8.301
1642605568.987,42.480,29.785,-226.562,28.320,10.742
1642605568.991,35.156,28.809,-268.066,21.973,0.488
1642605568.994,28.809,30.273,-263.672,20.508,9.277
1642605568.998,26.367,25.879,-458.984,17.578,27.832
1642605569.002,25.879,23.926,-534.668,18.066,-4.395
1642605569.006,19.043,27.344,-52.734,20.508,56.152
1642605569.010,13.672,25.879,-48.828,20.508,59.570
1642605569.012,18.066,29.297,-185.547,26.367,-1.953
1642605569.016,23.438,34.180,-26.855,31.250,2.930
1642605569.020,20.508,35.156,37.598,30.762,10.742
1642605569.024,12.695,29.297,-58.105,23.926,22.949
1642605569.028,25.391,29.297,-120.605,27.344,41.992
1642605569.032,27.344,31.738,-148.926,27.832,33.691
1642605569.036,11.719,30.273,-169.922,15.137,23.438
1642605569.039,6.836,31.250,-168.945,12.695,15.625
1642605569.043,4.883,29.785,-165.039,9.277,31.738
1642605569.047,14.648,28.809,-82.031,13.672,70.312
1642605569.051,20.020,28.320,18.555,22.461,56.641
1642605569.055,8.301,30.273,-150.391,19.043,33.203
1642605569.072,5.859,32.715,-468.262,11.230,12.695
1642605569.076,19.531,30.762,-192.383,11.230,33.203
1642605569.080,26.367,29.297,49.805,27.344,83.008
1642605569.084,17.090,29.785,-3.906,30.273,80.566
1642605569.088,13.184,31.250,-20.508,22.949,58.105
1642605569.092,21.484,29.785,-71.777,26.367,102.051
1642605569.096,23.926,27.344,-155.762,35.645,97.656
1642605569.099,14.648,28.809,-304.688,33.691,38.086
1642605569.103,12.695,32.715,-228.516,24.902,40.039
1642605569.107,20.020,34.180,53.711,27.344,52.734
1642605569.111,26.855,31.738,18.555,39.062,51.270
1642605569.115,20.020,28.809,-169.922,37.598,38.086
1642605569.103,9.766,25.391,-213.867,26.855,36.621
1642605569.107,15.137,26.855,-26.855,22.949,50.293
1642605569.111,24.902,27.832,-22.949,28.320,33.691
1642605569.115,23.438,27.344,-140.137,29.785,33.203
1642605569.119,16.602,27.832,-44.922,20.508,10.254
1642605569.123,18.555,28.320,-90.820,20.508,-31.250
1642605569.127,24.902,29.785,-187.012,26.855,6.836
1642605569.130,27.344,28.320,-129.395,27.832,31.250
1642605569.134,20.508,29.785,22.461,20.020,20.996
1642605569.138,16.113,36.621,87.891,11.230,17.578
1642605569.142,21.484,34.668,-185.547,14.648,-9.277
1642605569.146,28.809,29.785,-380.859,22.461,-13.672
1642605569.147,24.902,32.715,-48.828,20.020,2.441
1642605569.151,17.090,34.180,98.633,8.789,11.719
1642605569.155,22.461,30.762,-55.176,4.883,-3.418
1642605569.159,33.203,29.297,-70.801,13.672,-41.504
1642605569.163,34.668,33.203,71.777,18.066,-30.273
1642605569.167,26.855,35.645,11.230,13.672,-29.297
1642605569.171,24.414,32.715,-290.039,11.230,-48.340
1642605569.174,34.668,32.227,-358.887,20.996,-54.199
1642605569.178,39.551,37.598,40.527,28.320,-13.672
1642605569.182,27.832,38.086,132.812,21.973,-8.301
1642605569.186,22.949,32.227,17.090,16.113,-17.090
1642605569.190,36.133,32.227,109.375,17.090,21.484
1642605569.192,41.016,34.668,169.434,18.555,19.531
1642605569.196,25.879,38.086,27.832,15.137,28.809
1642605569.200,20.508,39.551,-43.945,9.766,61.523
1642605569.204,38.574,40.039,88.379,15.137,72.754
1642605569.208,45.410,38.086,141.602,22.949,60.547
1642605569.212,30.273,31.250,-75.195,20.020,34.668
1642605569.216,20.508,31.250,-338.379,9.766,43.945
1642605569.219,24.902,33.691,-145.020,8.789,50.781
1642605569.223,32.227,36.621,99.121,21.973,29.785
1642605569.227,30.762,36.133,-82.031,24.414,-18.555
1642605569.231,22.949,31.738,-173.340,15.625,-35.645
1642605569.235,18.066,29.785,58.594,10.254,22.949
1642605569.252,22.949,27.344,101.562,15.137,41.016
1642605569.256,25.879,29.297,48.340,22.949,51.758
1642605569.260,20.020,31.738,19.531,17.578,51.270
1642605569.264,18.066,31.738,54.199,10.742,22.461
1642605569.268,22.949,29.785,86.426,20.020,-17.578
1642605569.272,24.902,32.715,-51.270,25.879,-37.109
1642605569.276,20.020,35.645,-171.387,23.438,-38.086
1642605569.279,18.555,36.621,-23.438,20.020,2.930
1642605569.283,20.508,35.156,-33.203,16.602,14.160
1642605569.287,24.902,26.855,-354.004,21.973,-25.391
1642605569.291,21.973,23.438,-306.152,23.438,3.906
1642605569.295,17.090,30.762,88.867,19.043,35.156
1642605569.297,19.531,34.668,67.383,16.602,25.391
1642605569.301,28.320,33.691,-11.719,24.902,46.875
1642605569.305,30.762,35.156,81.055,34.180,38.086
1642605569.309,17.090,36.621,128.906,28.809,41.504
1642605569.313,12.695,34.180,28.320,23.438,52.734
1642605569.317,22.949,33.691,-162.598,25.879,18.066
1642605569.321,24.414,36.133,-128.906,27.832,35.156
1642605569.324,9.766,33.691,99.121,22.949,56.641
1642605569.328,4.395,29.297,-72.266,16.602,24.414
1642605569.332,15.625,26.855,-314.453,21.973,35.156
1642605569.336,24.414,29.785,-57.129,30.273,95.215
1642605569.340,19.043,31.738,-34.668,31.250,74.707
1642605569.343,9.277,29.785,-177.734,19.531,55.664
1642605569.347,13.184,29.297,-91.797,14.648,70.801
1642605569.351,22.949,30.273,92.773,25.879,56.152
1642605569.355,22.949,37.109,50.781,27.832,31.738
1642605569.359,13.672,39.551,-44.922,20.508,26.367
1642605569.363,10.742,32.715,-186.523,19.531,34.180
1642605569.367,20.020,29.785,-198.242,25.391,55.176
1642605569.370,25.879,30.273,-33.203,32.227,49.805
1642605569.374,19.531,27.832,-158.203,30.273,58.105
1642605569.378,14.160,27.832,-173.340,25.879,60.059
1642605569.382,20.996,34.668,80.078,37.598,34.668
1642605569.386,24.414,35.645,81.543,47.363,26.367
1642605569.388,16.602,33.203,-80.078,39.062,29.785
1642605569.392,13.672,36.133,-115.234,27.832,27.832
1642605569.396,17.578,38.574,-29.785,26.367,58.105
1642605569.400,21.484,33.691,-11.230,32.715,81.055
1642605569.404,20.996,32.227,-101.562,34.668,22.461
1642605569.408,22.461,35.156,-103.027,37.598,-23.438
1642605569.412,20.020,32.227,31.738,34.180,23.926
1642605569.415,13.672,26.367,-11.230,29.785,62.500
1642605569.419,11.719,23.438,-281.738,35.156,31.250
1642605569.423,4.883,23.438,-93.750,24.902,-11.719
1642605569.427,4.395,26.855,127.441,18.555,1.465
1642605569.431,11.230,27.832,25.391,22.949,29.785
1642605569.433,12.207,25.879,1.953,25.879,48.340
1642605569.437,8.789,27.832,132.812,19.531,62.012
1642605569.441,7.324,32.715,111.328,10.742,58.105
1642605569.445,14.648,32.715,11.230,15.137,39.062
1642605569.449,18.555,32.715,-55.176,18.066,1.953
1642605569.453,13.672,33.203,-92.773,18.555,25.391
1642605569.457,13.672,35.645,-101.562,17.578,61.035
1642605569.460,20.508,36.133,-314.453,21.484,22.949
1642605569.464,24.414,31.250,-339.844,27.344,54.688
1642605569.468,17.578,29.297,68.359,18.555,97.656
1642605569.472,0.000,26.855,232.422,4.395,86.426
1642605569.476,6.348,39.551,240.723,6.836,59.082
1642605569.478,19.043,47.363,453.613,13.184,33.691
1642605569.482,2.930,43.945,741.699,2.930,50.293
1642605569.486,-6.836,49.805,771.973,-7.812,50.781
1642605569.490,-2.930,56.152,784.668,-1.953,10.742
1642605569.494,-0.488,63.965,968.262,0.000,-3.418
1642605569.498,-10.254,62.988,978.516,-11.230,26.367
1642605569.502,-30.762,67.383,882.812,-20.020,40.039
1642605569.505,-44.922,79.590,738.281,-39.062,8.301
1642605569.509,-45.410,84.473,898.438,-40.039,-4.883
1642605569.513,-50.781,91.309,-975.098,-38.574,10.254
1642605569.517,-62.012,100.586,987.793,-49.316,19.531
1642605569.521,-73.242,105.469,-999.512,-67.383,30.273
1642605569.522,-72.754,104.492,999.512,-74.219,12.207
1642605569.526,-69.824,109.863,-1000.000,-69.336,29.297
1642605569.530,-83.984,117.188,997.070,-77.637,28.809
1642605569.534,-99.609,114.258,993.652,-93.262,35.156
1642605569.538,-101.562,110.352,-999.023,-104.004,71.289
1642605569.542,-101.074,110.840,870.605,-100.586,45.410
1642605569.546,-109.863,109.375,489.746,-101.074,35.156
1642605569.549,-121.094,106.934,431.152,-113.281,33.203
1642605569.553,-116.699,109.375,682.129,-116.699,40.039
1642605569.557,-105.469,102.539,662.109,-112.305,54.688
1642605569.561,-111.816,91.309,418.945,-110.352,40.039
1642605569.565,-117.188,86.914,301.758,-109.863,2.441
1642605569.567,-104.492,81.543,299.805,-104.980,40.527
1642605569.571,-99.609,70.312,125.977,-95.215,86.914
1642605569.575,-100.098,59.082,-97.656,-88.379,54.199
1642605569.579,-91.797,49.805,-80.566,-77.637,69.336
1642605569.583,-77.637,41.504,-103.027,-64.453,75.195
1642605569.587,-56.152,33.691,-414.062,-50.293,57.617
1642605569.591,-49.316,21.973,-713.867,-42.969,35.156
1642605569.594,-62.988,18.555,-567.383,-52.246,-3.418
1642605569.598,-57.617,15.625,-464.355,-40.527,-22.949
1642605569.602,-41.992,3.418,-718.750,-25.391,-33.691
1642605569.606,-17.578,2.930,-798.828,-9.766,-11.719
1642605569.610,-1.465,3.418,-570.801,10.254,48.828
1642605569.628,-14.160,-11.230,-634.277,-1.465,46.387
1642605569.632,-8.301,-19.043,-909.668,1.953,-2.930
1642605569.636,24.902,-15.625,-831.543,34.180,-13.672
1642605569.640,37.598,-12.695,-567.871,48.828,8.789
1642605569.644,34.668,-13.184,-590.332,46.875,9.277
1642605569.648,41.992,-13.184,-794.922,47.363,-9.277
1642605569.652,54.199,-13.184,-848.145,52.734,-43.945
1642605569.655,69.824,-9.766,-618.164,67.383,-14.160
1642605569.659,71.289,-12.695,-484.863,76.660,26.367
1642605569.663,65.430,-15.625,-776.367,69.824,-26.855
1642605569.667,77.637,-11.719,-763.184,67.871,-41.992
1642605569.671,78.613,-5.859,-429.688,69.336,-13.672
1642605569.673,71.777,-2.930,-462.891,63.477,-15.625
1642605569.677,76.172,-4.883,-523.926,64.941,-8.789
1642605569.681,83.984,-8.789,-442.383,71.777,1.953
1642605569.685,94.727,-11.719,-411.133,82.520,-9.277
1642605569.689,100.586,-14.160,-544.922,95.703,-46.387
1642605569.693,104.004,-15.625,-669.922,100.098,-57.129
1642605569.697,104.004,-13.184,-625.000,96.680,-32.227
1642605569.700,107.422,-11.719,-400.879,104.980,18.555
1642605569.704,111.328,-14.648,-457.031,114.746,8.789
1642605569.708,104.980,-16.113,-588.867,112.793,-17.578
1642605569.712,101.562,-11.230,-350.098,113.770,26.367
1642605569.716,110.840,-9.277,-198.730,118.164,39.551
1642605569.718,111.328,-11.230,-439.941,120.117,9.277
1642605569.722,102.051,-7.324,-593.750,114.746,7.812
1642605569.726,99.121,0.488,-338.867,109.375,28.320
1642605569.730,101.074,-1.465,-279.297,104.980,13.672
1642605569.734,103.516,-6.836,-321.777,106.445,41.504
1642605569.738,92.285,-6.836,-374.512,104.004,60.059
1642605569.742,75.684,-3.418,-426.270,91.309,40.527
1642605569.745,75.195,0.977,-408.691,86.914,21.973
1642605569.749,88.379,-0.488,-526.855,91.309,27.344
1642605569.753,95.703,-3.906,-541.504,93.750,30.273
1642605569.757,82.520,-0.977,-266.602,84.961,-25.391
1642605569.761,69.336,-1.953,-303.223,75.684,-45.410
1642605569.763,76.660,-0.977,-288.086,81.543,-9.766
1642605569.767,76.172,0.977,-156.250,81.543,17.578
1642605569.771,62.012,1.465,-107.910,74.219,44.922
1642605569.775,57.617,4.883,-215.820,68.359,48.340
1642605569.779,66.895,7.812,-293.457,69.336,22.461
1642605569.783,76.660,5.859,-221.680,80.078,34.668
1642605569.787,75.684,3.906,-202.637,84.473,72.266
1642605569.790,68.848,4.883,-270.996,80.566,65.430
1642605569.794,68.848,3.906,-489.258,74.707,-17.090
1642605569.798,80.566,4.883,-356.445,77.637,-11.719
1642605569.802,84.473,10.742,-59.570,89.844,53.223
1642605569.806,74.707,14.160,-153.809,83.984,36.621
1642605569.807,68.848,10.742,-258.789,77.148,-18.066
1642605569.811,72.754,11.719,-40.039,81.543,-17.090
1642605569.815,75.684,13.184,7.324,85.938,10.742
1642605569.819,68.359,14.160,-84.961,78.613,14.648
1642605569.823,57.129,12.695,-56.641,61.523,50.293
1642605569.827,56.641,8.789,-204.590,56.152,2.441
1642605569.831,64.453,11.719,-219.727,56.641,-17.578
1642605569.834,55.176,15.137,-337.891,46.875,34.668
1642605569.838,43.945,15.137,-451.660,35.645,12.207
1642605569.842,48.828,20.020,-76.660,30.273,-5.371
1642605569.846,49.316,20.020,-32.227,32.715,-0.488
1642605569.850,41.016,11.719,-118.164,37.109,-18.066
1642605569.854,46.875,11.230,-89.844,51.270,16.113
1642605569.858,46.875,23.438,-15.625,53.223,68.848
1642605569.862,20.020,29.297,-50.781,25.391,57.129
1642605569.866,11.719,22.461,-209.473,20.996,4.395
1642605569.870,20.996,21.973,-67.383,25.879,11.719
1642605569.874,23.438,27.832,-63.965,20.996,33.691
1642605569.878,27.832,25.879,-268.555,26.855,31.250
1642605569.881,34.668,25.879,-299.805,35.156,6.836
1642605569.885,31.250,26.855,-68.359,33.203,-4.395
1642605569.889,30.273,25.391,53.711,36.621,24.902
1642605569.893,38.574,21.484,-186.523,46.875,11.230
1642605569.897,42.969,23.438,-243.652,54.688,14.160
1642605569.898,38.086,26.855,17.090,58.105,70.312
1642605569.902,33.691,26.367,59.082,50.293,71.777
1642605569.906,34.668,28.809,-151.855,46.875,48.340
1642605569.910,44.434,28.320,-228.516,56.152,64.453
1642605569.914,43.945,28.320,-52.246,58.594,88.379
1642605569.918,25.879,22.949,-120.605,46.875,64.453
1642605569.922,19.043,20.020,-398.926,41.016,-0.977
1642605569.925,21.973,22.461,-471.191,42.969,-6.348
1642605569.929,22.461,27.832,-114.258,44.922,18.555
1642605569.933,16.602,30.762,50.293,42.480,66.895
1642605569.937,10.742,29.297,4.883,29.297,111.328
1642605569.941,13.184,30.762,32.715,23.926,55.176
1642605569.943,17.578,32.715,39.551,24.902,45.898
1642605569.947,10.742,28.809,-33.203,17.090,74.219
1642605569.951,-0.488,26.367,-81.543,2.930,43.945
1642605569.955,7.324,30.273,23.438,6.348,44.922
1642605569.959,13.672,32.227,116.211,17.090,69.824
1642605569.963,-0.488,30.273,-67.871,14.648,73.730
1642605569.967,-6.836,27.832,-457.031,8.301,31.738
1642605569.970,3.906,24.902,-286.133,7.324,34.180
1642605569.974,17.578,25.391,18.066,16.113,44.434
1642605569.978,17.090,27.832,-119.141,21.484,42.480
1642605569.982,12.207,33.203,-188.477,13.672,25.879
1642605569.986,14.160,37.109,-42.480,13.184,-23.438
1642605570.002,23.926,34.180,31.250,23.926,1.953
1642605570.006,28.320,30.273,-19.531,30.273,19.043
1642605570.010,20.020,30.273,-37.598,20.508,1.953
1642605570.014,18.555,30.762,24.414,11.230,20.508
1642605570.018,24.902,28.809,24.414,16.602,6.348
1642605570.022,23.926,30.273,-62.012,22.461,-16.113
1642605570.026,19.043,33.203,-162.109,19.531,16.602
1642605570.029,21.484,37.109,-78.613,14.160,2.930
1642605570.033,33.203,37.109,8.789,21.484,3.906
1642605570.037,40.039,29.297,-290.039,31.738,16.113
1642605570.041,40.527,26.855,-331.543,30.762,19.043
1642605570.045,34.180,32.227,35.156,24.902,47.852
1642605570.047,27.832,31.738,37.109,20.020,53.223
1642605570.051,35.645,26.855,-63.965,22.461,6.348
1642605570.055,41.992,27.832,20.508,29.785,-11.719
1642605570.059,30.273,31.738,110.352,24.414,20.020
1642605570.063,23.926,28.320,8.301,20.996,20.020
1642605570.067,37.109,28.320,-187.012,22.949,-7.812
1642605570.071,39.062,34.668,-157.715,21.973,-9.277
1642605570.074,27.344,32.715,2.930,18.555,-39.062
1642605570.078,16.113,27.344,-161.133,10.254,-82.520
1642605570.082,17.578,24.902,-423.828,9.766,-92.285
1642605570.086,26.855,23.438,-111.328,13.184,-34.180
1642605570.090,24.414,25.879,88.379,15.625,26.855
1642605570.093,20.508,29.297,-132.812,12.695,-0.488
1642605570.097,29.297,30.273,-158.691,14.648,-34.180
1642605570.101,34.668,32.227,48.828,29.297,-21.484
1642605570.105,25.879,36.133,80.078,31.250,-26.367
1642605570.109,17.578,33.203,-20.508,23.926,-46.387
1642605570.113,20.996,28.320,-128.418,27.832,-10.742
1642605570.117,27.344,32.227,-116.211,36.133,37.598
1642605570.120,24.414,35.156,86.426,36.133,26.855
1642605570.124,19.531,31.738,-174.316,24.414,-50.293
1642605570.128,22.949,28.320,-348.633,24.902,-100.098
1642605570.132,26.855,31.250,42.480,29.785,-46.387
1642605570.136,28.809,34.668,118.164,37.109,-6.348
1642605570.138,24.414,35.645,94.727,37.109,8.301
1642605570.142,19.531,32.715,71.777,23.926,30.762
1642605570.146,25.391,28.809,39.551,28.320,62.500
1642605570.150,26.367,36.133,16.113,31.250,83.496
1642605570.154,15.137,41.504,-125.488,22.461,28.320
1642605570.158,9.277,38.086,-169.434,19.043,-0.977
1642605570.162,16.113,38.574,-28.320,19.043,27.832
1642605570.165,20.020,41.016,-29.297,25.879,37.109
1642605570.169,13.672,34.180,-244.629,25.879,16.113
1642605570.173,1.465,33.203,-17.578,12.695,6.836
1642605570.177,-0.977,37.598,102.051,15.137,-10.254
1642605570.181,9.766,36.621,-28.809,26.855,6.836
1642605570.183,7.324,30.762,10.742,26.855,44.922
1642605570.187,-6.348,28.809,75.195,17.090,38.574
1642605570.191,-10.254,29.785,60.059,9.766,12.695
1642605570.195,-0.977,26.855,31.738,14.160,43.945
1642605570.199,10.254,25.879,16.602,25.391,61.523
1642605570.203,13.184,27.344,-34.180,27.344,55.176
1642605570.207,7.812,30.762,-88.867,20.996,65.430
1642605570.210,8.789,31.250,-257.812,20.996,29.297
1642605570.214,14.648,26.367,-160.156,24.902,6.348
1642605570.218,13.184,24.902,127.930,27.344,58.594
1642605570.222,8.301,26.855,134.766,27.344,80.566
1642605570.226,10.254,26.367,-170.410,27.832,2.441
1642605570.228,18.555,28.320,-104.980,36.133,-4.883
1642605570.232,17.578,29.785,225.586,40.527,55.664
1642605570.236,9.766,26.367,59.570,31.250,-14.648
1642605570.240,13.184,27.344,-19.531,26.855,-20.508
1642605570.244,21.484,30.273,102.051,29.785,13.672
1642605570.248,19.043,31.250,19.531,28.809,5.371
1642605570.252,10.254,27.832,-169.434,25.391,0.977
1642605570.255,8.301,25.391,-333.008,20.020,-15.137
1642605570.259,12.695,30.762,-109.863,22.949,-10.254
1642605570.263,8.301,29.297,133.301,28.809,4.883
1642605570.267,3.418,26.367,10.254,24.902,48.340
1642605570.271,8.301,28.320,-125.488,23.438,37.109
1642605570.273,2.441,24.414,91.797,20.020,69.336
1642605570.277,-5.859,23.438,133.789,15.625,62.500
1642605570.281,-10.742,28.320,0.000,18.555,6.348
1642605570.285,-13.672,25.879,17.090,12.695,36.621
1642605570.289,-5.371,25.391,65.430,6.836,66.895
1642605570.293,10.742,29.297,-34.180,17.578,15.625
1642605570.297,15.137,28.320,-357.422,20.508,-27.344
1642605570.300,6.348,27.832,-358.887,13.184,-14.160
1642605570.304,4.883,32.227,63.477,13.184,32.715
1642605570.308,17.578,29.785,91.797,21.973,29.785
1642605570.312,23.926,28.809,-75.195,29.785,-3.418
1642605570.316,16.602,33.203,-31.250,24.414,-28.809
1642605570.319,13.184,31.250,65.918,13.672,-35.156
1642605570.323,24.414,29.297,-1.465,25.391,-9.766
1642605570.327,35.645,30.762,-112.793,37.109,-8.789
1642605570.331,29.297,29.785,10.254,26.367,0.488
1642605570.335,20.996,28.809,64.941,20.020,-32.227
1642605570.339,24.902,28.320,-162.598,25.879,-46.875
1642605570.343,31.250,28.809,-382.812,33.691,-20.020
1642605570.346,28.809,32.227,-140.137,32.227,-1.953
1642605570.350,23.438,31.738,85.449,25.391,11.719
1642605570.354,24.414,29.785,-2.441,26.367,-25.879
1642605570.358,27.832,29.297,-16.113,29.785,-26.855
1642605570.362,23.926,26.855,102.539,33.691,13.672
1642605570.378,12.695,28.809,109.863,26.855,28.320
1642605570.382,9.277,29.297,-60.059,19.043,27.344
1642605570.386,14.160,25.391,-50.781,25.391,17.090
1642605570.390,12.207,26.367,94.727,27.832,28.809
1642605570.394,4.395,27.832,139.160,27.344,64.453
1642605570.398,2.441,28.809,-165.039,22.461,66.406
1642605570.402,2.930,29.297,-400.391,17.578,32.715
1642605570.405,3.906,29.297,-75.684,22.949,20.020
1642605570.409,3.906,29.297,58.105,23.438,16.602
1642605570.413,5.859,30.273,-29.297,17.578,-5.371
1642605570.417,10.742,32.715,9.277,18.066,29.785
1642605570.421,11.230,33.203,74.707,23.438,27.344
1642605570.423,7.812,32.715,61.523,27.832,36.621
1642605570.427,-0.488,29.785,-70.801,18.555,20.996
1642605570.431,2.441,29.297,-50.293,12.695,-6.348
1642605570.435,14.160,33.203,-36.621,19.531,17.578
1642605570.439,16.113,30.762,-138.672,23.926,44.922
1642605570.443,5.859,27.832,-225.586,19.043,53.223
1642605570.447,11.230,31.250,-201.660,16.113,31.738
1642605570.450,26.367,35.156,50.781,26.855,51.270
1642605570.454,23.438,34.668,20.996,36.133,58.594
1642605570.458,20.996,33.203,-256.836,32.715,28.320
1642605570.462,20.996,36.133,-7.324,26.855,53.223
1642605570.466,22.949,37.598,144.531,25.391,36.621
1642605570.468,36.621,32.227,5.371,34.180,11.230
1642605570.472,35.645,32.715,61.523,34.668,51.758
1642605570.476,26.855,34.180,141.602,26.367,63.477
1642605570.480,33.203,31.738,48.340,23.438,28.320
1642605570.484,38.574,33.691,10.254,27.344,15.625
1642605570.488,31.738,36.621,-73.242,26.855,15.137
1642605570.492,20.020,35.645,-142.090,18.066,-0.977
1642605570.495,19.043,31.738,-93.750,10.254,47.363
1642605570.499,25.391,29.297,-308.594,14.648,43.457
1642605570.503,23.926,28.809,-439.941,19.043,-31.250
1642605570.507,23.926,29.785,-70.312,15.137,-42.480
1642605570.511,26.855,31.250,41.016,17.090,-9.277
1642605570.513,36.621,27.832,-31.250,31.250,-20.020
1642605570.517,48.828,27.344,98.145,53.223,20.996
1642605570.521,35.645,34.180,189.941,47.852,85.449
1642605570.525,12.207,31.738,56.641,13.184,25.879
1642605570.529,26.855,34.180,60.059,15.137,22.461
1642605570.533,48.340,37.109,151.855,39.062,14.648
1642605570.537,53.223,31.738,294.434,46.387,-1.465
1642605570.540,49.805,24.902,290.039,47.852,12.695
1642605570.544,46.875,20.020,83.496,46.875,-0.977
1642605570.548,63.477,23.438,184.082,57.617,-8.301
1642605570.552,73.730,29.297,418.457,73.242,57.129
1642605570.556,62.500,24.902,329.590,66.406,46.875
1642605570.557,58.594,25.391,241.699,62.500,27.832
1642605570.561,63.477,29.297,416.504,69.336,69.336
1642605570.565,66.406,24.414,399.414,72.754,45.898
1642605570.569,66.406,23.926,293.457,71.289,40.039
1642605570.573,62.012,25.879,206.055,65.918,26.855
1642605570.577,65.918,23.926,121.094,70.312,4.883
1642605570.581,67.383,21.973,75.684,72.754,23.926
1642605570.584,52.734,25.879,-114.746,62.988,1.465
1642605570.588,43.457,31.738,-156.250,53.711,-18.555
1642605570.592,51.270,29.297,154.785,54.199,-4.395
1642605570.596,56.152,27.832,167.969,60.059,-16.113
1642605570.600,46.875,31.738,103.516,54.688,-5.371
1642605570.648,38.086,31.738,58.105,41.016,-0.488
1642605570.652,41.504,32.227,125.977,41.016,15.137
1642605570.656,50.781,30.762,83.496,51.270,33.691
1642605570.660,46.387,27.832,-151.367,52.246,-15.137
1642605570.664,32.715,25.391,-3.906,42.969,0.000
1642605570.668,26.855,24.902,-0.488,39.062,11.719
1642605570.672,28.809,25.391,-198.242,41.504,4.883
1642605570.675,32.227,25.879,-85.449,50.781,41.992
1642605570.679,28.809,23.438,76.172,49.316,6.836
1642605570.683,33.691,26.367,151.855,40.527,8.301
1642605570.687,36.621,26.855,-104.004,41.992,-7.812
1642605570.691,37.598,24.902,-334.961,49.805,-57.129
1642605570.651,44.922,29.785,8.301,52.246,-13.184
1642605570.655,39.062,30.762,127.930,45.898,13.184
1642605570.659,40.527,29.297,-50.293,45.898,-19.531
1642605570.663,49.316,30.273,-88.867,55.176,-4.883
1642605570.667,42.969,32.227,83.496,52.246,40.527
1642605570.671,41.504,35.156,-108.887,43.457,-12.695
1642605570.675,50.293,35.645,-213.379,41.016,-20.508
1642605570.678,58.594,32.227,-3.906,37.109,36.621
1642605570.682,52.734,30.273,64.941,36.133,37.109
1642605570.686,37.598,33.691,13.672,28.809,6.348
1642605570.690,34.668,35.645,-104.004,25.879,-1.465
1642605570.694,36.621,32.715,-29.297,30.273,17.578
1642605570.693,34.668,34.180,130.859,32.227,29.297
1642605570.697,31.738,38.086,21.484,37.109,41.016
1642605570.701,23.438,36.621,-203.125,28.809,50.293
1642605570.705,23.926,33.691,-63.965,24.414,66.895
1642605570.709,27.832,35.645,101.562,34.180,81.543
1642605570.713,20.996,36.133,-80.566,34.668,88.867
1642605570.717,12.207,34.668,-429.688,29.297,65.430
1642605570.720,17.090,34.180,-624.023,29.297,28.320
1642605570.724,21.484,31.250,-272.461,36.133,61.035
1642605570.728,10.742,31.250,50.293,37.109,78.613
1642605570.732,4.395,31.250,37.109,28.809,88.867
1642605570.736,8.301,34.180,77.148,27.832,83.496
1642605570.753,16.113,34.668,114.746,33.691,76.172
1642605570.757,13.672,32.715,76.172,38.086,40.039
1642605570.761,7.324,31.250,29.785,32.715,38.086
1642605570.765,8.789,28.809,85.449,27.344,97.656
1642605570.769,14.160,28.320,75.684,28.320,66.406
1642605570.773,20.996,25.879,-97.168,29.785,17.090
1642605570.777,17.090,25.879,-199.707,30.273,18.555
1642605570.780,12.695,28.320,-11.230,30.273,83.496
1642605570.784,16.113,32.715,72.754,35.156,119.629
1642605570.788,18.555,32.227,-233.887,38.086,86.914
1642605570.792,20.020,29.297,-299.316,35.156,44.434
1642605570.796,10.742,29.785,8.789,26.367,45.898
1642605570.798,10.742,26.855,-31.738,24.414,29.785
1642605570.802,25.391,28.320,-101.562,28.320,14.160
1642605570.806,27.344,30.762,21.973,25.879,37.598
1642605570.810,17.090,31.250,85.449,17.578,46.387
1642605570.814,19.043,31.250,-34.668,15.137,36.133
1642605570.818,26.855,31.250,-195.801,18.066,-6.348
1642605570.822,22.949,34.668,-159.668,19.043,-7.324
1642605570.825,21.484,37.109,1.953,18.066,3.906
1642605570.829,22.949,33.691,-116.699,9.766,-40.527
1642605570.833,28.809,30.273,-398.438,9.277,-20.996
1642605570.837,38.086,31.738,-151.855,17.578,17.090
1642605570.841,35.645,37.109,-8.301,15.625,-14.648
1642605570.843,21.973,36.133,-186.523,8.789,-15.137
1642605570.847,26.367,32.227,-199.707,9.277,8.789
1642605570.851,41.504,35.645,59.082,23.926,11.719
1642605570.855,34.180,37.109,135.742,27.344,6.836
1642605570.859,20.020,35.156,28.320,19.043,-6.836
1642605570.863,18.066,31.250,-94.727,19.531,3.418
1642605570.867,24.902,30.273,-80.078,26.367,26.855
1642605570.870,24.902,29.297,111.328,29.785,8.301
1642605570.874,14.160,27.832,-150.391,20.996,-43.945
1642605570.878,14.648,33.203,-301.270,11.230,-41.504
1642605570.882,27.832,38.086,73.730,17.090,47.363
1642605570.886,28.809,37.109,138.672,24.902,74.219
1642605570.889,22.461,33.203,80.566,21.484,36.621
1642605570.893,21.484,32.715,70.801,12.207,13.184
1642605570.897,26.855,35.156,75.195,12.695,27.832
1642605570.901,35.156,34.668,55.664,26.855,70.312
1642605570.905,30.762,35.156,-65.430,23.926,53.711
1642605570.909,20.508,39.551,-76.172,10.742,7.324
1642605570.913,24.414,40.527,-46.387,8.301,-5.371
1642605570.916,34.180,35.156,-73.730,20.996,18.555
1642605570.920,24.902,33.691,-242.188,20.508,19.043
1642605570.924,11.719,33.691,-33.691,6.836,46.875
1642605570.928,13.672,32.715,134.766,12.207,32.227
1642605570.932,21.484,35.156,-35.645,20.508,-10.254
1642605570.948,22.949,35.156,-48.828,24.414,-12.207
1642605570.952,13.672,32.715,40.527,19.531,-38.574
1642605570.956,10.742,36.133,100.586,14.648,34.180
1642605570.960,23.926,38.086,72.754,17.090,78.613
1642605570.964,27.832,30.273,28.320,21.484,40.039
1642605570.968,18.066,25.879,-72.754,16.602,20.508
1642605570.972,12.695,24.902,-145.996,11.230,14.160
1642605570.975,17.578,28.809,-353.516,13.672,-12.207
1642605570.979,27.344,34.668,-412.598,20.508,-19.043
1642605570.983,28.320,35.156,-3.418,17.090,31.250
1642605570.987,18.066,31.738,56.152,14.160,15.625
1642605570.991,20.996,31.738,-14.648,19.043,1.465
1642605570.978,32.227,32.715,121.582,23.438,51.758
1642605570.982,33.691,32.227,221.680,23.438,33.203
1642605570.986,19.043,34.180,86.914,17.090,-22.461
1642605570.990,14.160,31.738,4.883,14.160,21.484
1642605570.994,20.996,30.762,111.328,18.555,44.434
1642605570.998,26.367,31.250,33.691,26.367,16.113
1642605571.002,18.555,32.227,-139.160,25.391,21.973
1642605571.005,14.160,34.668,-194.824,22.461,16.113
1642605571.009,25.879,31.250,-123.535,24.414,15.625
1642605571.013,26.855,33.203,86.914,29.785,60.059
1642605571.017,18.555,35.156,23.438,27.832,57.129
1642605571.021,8.789,31.738,-378.418,16.113,1.953
1642605571.022,6.348,32.715,-207.520,11.230,3.418
1642605571.026,11.230,34.180,100.586,18.555,19.531
1642605571.030,8.301,33.691,17.578,19.531,35.645
1642605571.034,0.488,31.738,27.832,8.789,27.832
1642605571.038,4.395,27.832,80.566,8.301,20.020
1642605571.042,10.254,27.832,-4.883,20.020,32.227
1642605571.046,4.883,25.879,-267.090,19.531,7.812
1642605571.049,-0.977,26.367,-341.797,12.207,0.488
1642605571.053,0.977,31.250,-24.902,14.648,56.641
1642605571.057,8.789,34.180,92.773,25.879,33.203
1642605571.061,9.277,31.738,-51.758,28.809,28.320
1642605571.065,6.348,21.484,-103.027,24.902,30.762
1642605571.068,23.926,25.879,4.883,36.621,-9.766
1642605571.072,32.715,34.180,12.207,42.480,4.883
1642605571.076,20.996,33.691,-102.051,32.227,14.648
1642605571.080,14.648,39.551,-27.832,24.902,35.645
1642605571.084,10.742,41.992,118.652,16.113,63.965
1642605571.088,12.207,38.086,-101.074,14.160,21.973
1642605571.092,12.207,35.156,-391.113,22.461,-2.930
1642605571.095,7.324,39.551,-70.801,18.555,17.578
1642605571.099,-2.441,44.434,173.828,6.348,44.922
1642605571.103,-3.906,38.086,-36.621,8.301,16.602
1642605571.107,14.160,36.133,-71.777,21.973,-7.324
1642605571.111,14.648,39.551,63.477,24.902,21.973
1642605571.128,-1.465,36.621,66.895,7.324,40.527
1642605571.132,1.465,32.715,-66.895,3.418,58.594
1642605571.136,9.766,33.203,-39.062,15.625,70.801
1642605571.140,6.836,33.691,70.801,13.184,80.078
1642605571.144,0.488,31.250,45.410,5.371,84.473
1642605571.148,3.906,27.832,-241.211,2.441,64.941
1642605571.152,17.090,31.250,-399.902,8.301,60.547
1642605571.155,26.367,33.203,-46.875,20.020,68.848
1642605571.159,23.438,31.738,59.082,23.438,35.156
1642605571.163,21.484,33.203,-116.211,16.113,16.602
1642605571.167,27.344,36.621,-66.406,20.020,30.273
1642605571.171,34.180,37.109,106.445,31.738,42.969
1642605571.173,35.156,32.715,68.848,35.645,67.871
1642605571.177,31.738,31.250,-38.574,26.367,71.777
1642605571.181,30.762,30.762,28.320,20.020,64.453
1642605571.185,39.551,30.762,142.578,26.855,109.375
1642605571.189,44.434,33.691,-68.359,34.180,106.934
1642605571.193,36.621,35.156,-333.496,26.367,65.430
1642605571.197,34.180,37.598,-272.949,20.996,46.875
1642605571.200,41.992,38.574,-43.945,28.320,56.641
1642605571.204,41.504,35.645,-67.871,33.203,71.777
1642605571.208,30.273,35.645,-340.332,32.227,16.113
1642605571.212,18.066,35.645,-123.047,19.043,-6.836
1642605571.216,17.578,35.645,77.637,16.113,9.766
1642605571.218,21.484,34.668,17.578,24.902,41.504
1642605571.222,8.301,30.273,4.883,16.113,89.355
1642605571.226,-0.977,29.297,54.199,10.742,112.305
1642605571.230,1.465,30.762,71.289,12.695,95.703
1642605571.234,7.812,28.809,-19.043,19.043,81.055
1642605571.238,8.301,28.320,-107.910,22.949,102.539
1642605571.242,1.465,27.344,-130.371,18.066,105.957
1642605571.245,3.906,27.344,-66.406,20.508,79.102
1642605571.249,13.672,21.484,-298.828,28.809,28.320
1642605571.253,16.113,21.484,-436.523,31.738,45.410
1642605571.257,12.207,30.762,-29.297,27.832,106.445
1642605571.261,16.113,31.250,51.270,21.484,74.707
1642605571.263,28.320,31.738,9.277,22.461,74.219
1642605571.267,27.832,35.156,81.543,30.273,65.430
1642605571.271,23.438,38.574,120.605,32.715,44.922
1642605571.275,20.508,39.062,50.293,27.344,35.645
1642605571.279,24.902,33.203,-26.855,26.367,34.668
1642605571.283,37.598,30.762,-77.148,33.691,32.715
1642605571.287,35.645,33.203,-47.363,35.645,33.203
1642605571.290,30.273,35.645,-55.664,25.879,32.227
1642605571.294,27.344,36.133,-330.566,18.555,-10.742
1642605571.298,33.203,37.109,-198.242,28.320,6.836
1642605571.302,34.668,35.645,17.090,37.109,76.172
1642605571.306,20.996,34.180,-76.660,25.391,59.570
1642605571.323,31.738,35.645,-127.930,30.273,19.531
1642605571.327,49.805,33.203,81.055,50.293,33.691
1642605571.331,17.090,20.508,131.836,30.273,50.781
1642605571.335,-14.160,18.066,36.133,4.395,44.434
1642605571.339,-0.977,21.973,26.855,11.230,21.973
1642605571.343,14.160,17.090,-77.637,28.809,18.555
1642605571.347,16.602,11.719,-79.102,31.738,38.574
1642605571.350,12.207,11.719,-223.145,21.484,16.113
1642605571.354,5.371,13.672,-331.055,11.719,-14.648
1642605571.358,13.672,20.508,45.410,12.207,0.488
1642605571.362,24.902,22.949,98.633,22.949,24.902
1642605571.366,23.438,19.531,35.645,25.391,46.387
1642605571.354,14.160,20.508,14.160,18.555,37.109
1642605571.358,17.578,18.555,-24.414,21.484,30.273
1642605571.362,26.367,18.066,-34.668,29.785,48.340
1642605571.366,25.391,19.531,-74.219,30.762,25.391
1642605571.370,24.902,21.484,64.941,25.879,13.184
1642605571.374,28.809,23.438,-24.414,26.855,13.672
1642605571.378,36.621,24.902,-207.031,38.086,14.648
1642605571.381,41.016,25.879,-83.496,43.945,56.641
1642605571.385,30.273,22.949,26.855,39.551,41.504
1642605571.389,21.484,24.902,65.918,31.738,46.875
1642605571.393,23.438,22.461,-8.789,31.250,40.039
1642605571.397,22.461,15.625,-384.277,40.527,-17.090
1642605571.398,15.137,20.508,-228.516,32.715,13.184
1642605571.402,5.859,24.414,86.426,20.996,57.129
1642605571.406,9.766,23.926,22.949,19.043,39.062
1642605571.410,20.996,25.391,-69.336,23.926,35.645
1642605571.414,14.648,27.832,-3.418,25.391,32.227
1642605571.418,0.977,21.973,-69.336,13.184,-11.719
1642605571.422,0.488,16.113,-412.598,12.207,-35.645
1642605571.425,10.742,17.578,-504.395,18.555,-16.602
1642605571.429,15.625,23.438,-92.285,23.926,11.719
1642605571.433,7.812,21.484,72.754,23.926,-7.812
1642605571.437,7.812,22.461,-44.922,18.555,-5.859
1642605571.441,22.949,25.879,-30.273,26.855,0.000
1642605571.442,28.809,21.973,83.008,30.762,17.090
1642605571.446,20.996,23.438,44.434,18.066,63.965
1642605571.450,19.043,23.438,-67.383,13.184,57.617
1642605571.454,29.297,23.438,22.949,14.160,46.387
1642605571.458,36.133,27.832,137.695,19.043,58.105
1642605571.462,31.250,28.809,-6.348,17.090,63.477
1642605571.466,19.531,26.855,-483.398,5.859,22.949
1642605571.469,19.043,29.785,-434.082,8.789,-12.695
1642605571.473,26.855,29.297,40.527,22.949,-0.977
1642605571.477,17.578,25.391,47.363,27.344,-16.113
1642605571.481,-0.977,24.902,23.438,18.555,19.043
1642605571.485,0.000,27.832,113.281,19.043,54.688
1642605571.503,16.602,32.227,130.371,33.691,33.203
1642605571.507,17.090,28.809,41.992,36.621,26.855
1642605571.511,9.766,30.762,40.527,27.344,69.824
1642605571.515,9.277,31.738,99.609,18.555,42.969
1642605571.519,16.113,26.367,3.906,29.297,-47.852
1642605571.523,18.555,27.344,-126.953,34.668,-7.812
1642605571.527,12.695,28.809,-159.668,28.320,65.918
1642605571.530,9.766,27.344,-11.719,30.273,53.711
1642605571.534,12.207,26.367,28.809,30.273,31.250
1642605571.538,17.578,26.855,-330.566,34.180,-16.113
1642605571.542,13.184,31.250,-388.184,26.855,-2.441
1642605571.546,9.277,33.691,-35.156,14.160,73.242
1642605571.548,11.719,33.203,-3.906,15.137,81.543
1642605571.552,18.066,29.785,-53.223,20.020,53.711
1642605571.556,14.648,27.832,-12.695,23.438,18.066
1642605571.560,3.418,29.785,78.125,20.996,-2.930
1642605571.564,6.348,27.344,48.828,16.602,0.488
1642605571.568,14.160,22.949,-134.766,23.438,28.809
1642605571.572,12.207,24.414,-166.992,27.832,80.078
1642605571.575,10.254,28.320,-1.953,22.461,53.223
1642605571.579,7.324,26.855,-83.984,14.648,-13.184
1642605571.583,13.672,26.855,-342.773,20.020,-29.297
1642605571.587,25.391,27.832,-41.016,30.762,16.602
1642605571.591,24.414,23.438,63.477,34.180,31.738
1642605571.593,27.344,25.391,-243.652,33.691,55.664
1642605571.597,38.086,39.062,-177.734,29.785,90.332
1642605571.601,38.086,45.410,61.035,26.367,83.496
1642605571.605,31.250,44.434,54.688,24.414,50.781
1642605571.609,28.809,44.922,8.301,20.508,20.020
1642605571.613,28.809,42.480,-119.629,19.531,25.879
1642605571.617,28.320,38.574,-139.648,19.531,33.691
1642605571.620,21.973,35.645,83.496,18.066,32.227
1642605571.624,14.160,30.273,-187.012,11.719,-15.625
1642605571.628,13.184,26.367,-350.586,5.371,-30.273
1642605571.632,16.113,28.320,32.715,12.207,27.832
1642605571.636,13.184,30.762,36.621,19.531,52.734
1642605571.683,7.812,26.855,-77.148,19.531,20.508
1642605571.687,8.789,28.320,27.344,13.184,12.207
1642605571.691,13.672,31.738,33.203,10.254,-10.254
1642605571.695,16.602,26.855,-44.434,20.508,-8.301
1642605571.699,11.719,23.926,-98.145,18.555,23.438
1642605571.703,4.395,27.344,-65.918,12.207,36.133
1642605571.707,9.277,30.273,7.324,10.254,69.824
1642605571.710,18.555,28.809,-10.742,16.113,53.711
1642605571.714,19.531,29.785,-169.922,21.484,43.457
1642605571.718,14.160,32.715,29.297,7.812,61.523
1642605571.722,16.602,32.227,190.918,8.789,14.160
1642605571.726,29.785,31.738,61.523,19.043,11.719
1642605571.687,25.391,32.227,68.359,17.578,51.270
1642605571.691,15.137,34.668,159.180,11.719,75.684
1642605571.695,17.578,35.645,122.070,8.301,75.195
1642605571.699,20.020,31.738,-3.906,13.672,-3.906
1642605571.703,24.414,31.738,23.438,19.043,-1.953
1642605571.707,22.949,32.227,-17.090,18.555,37.598
1642605571.711,20.020,30.273,-194.824,21.484,31.250
1642605571.714,25.391,36.621,-223.633,25.879,24.414
1642605571.718,31.250,39.062,-59.082,34.180,74.219
1642605571.722,20.020,31.250,120.605,28.809,104.004
1642605571.726,8.789,26.855,54.688,15.625,52.734
1642605571.730,17.090,22.949,-123.047,15.137,28.320
1642605571.728,25.879,20.996,-61.035,23.438,41.504
1642605571.732,24.902,27.344,73.242,30.762,57.617
1642605571.736,19.531,32.715,-41.992,24.902,16.113
1642605571.740,25.879,34.668,-142.578,29.785,14.160
1642605571.744,35.156,34.668,28.809,42.480,82.520
1642605571.748,30.762,31.250,2.930,38.574,78.125
1642605571.752,19.531,31.738,-144.043,29.785,65.918
1642605571.755,16.113,31.738,-421.875,19.531,49.805
1642605571.759,21.973,26.855,-678.223,20.020,10.254
1642605571.763,28.809,28.320,-359.863,31.738,30.273
1642605571.767,25.391,29.785,-39.062,29.297,44.922
1642605571.771,20.020,31.738,30.762,24.902,90.332
1642605571.773,24.414,32.715,129.883,24.902,119.141
1642605571.777,23.438,26.367,95.215,25.879,103.516
1642605571.781,19.531,24.902,32.715,26.855,76.172
1642605571.785,13.672,26.855,63.965,17.090,87.891
1642605571.789,16.113,26.855,120.117,14.160,132.324
1642605571.793,24.902,28.320,62.988,19.531,145.996
1642605571.797,25.879,27.832,-270.996,20.508,100.098
1642605571.800,20.020,25.391,-374.512,14.160,32.227
1642605571.804,18.555,31.738,7.812,11.230,83.496
1642605571.808,30.273,30.273,77.637,23.438,73.730
1642605571.812,28.809,26.367,-90.820,25.879,25.391
1642605571.816,14.160,28.320,-64.941,15.625,29.785
1642605571.819,13.184,26.367,85.938,12.695,30.273
1642605571.823,24.902,31.738,48.340,24.902,42.480
1642605571.827,28.809,35.645,-86.914,35.645,49.805
1642605571.831,16.602,30.273,-25.391,27.832,43.457
1642605571.835,10.254,28.320,24.902,23.438,33.203
1642605571.839,11.719,27.344,-160.645,29.297,13.672
1642605571.843,21.973,25.879,-381.348,41.992,-31.250
1642605571.846,25.879,27.344,-171.387,42.969,-3.906
1642605571.850,7.812,29.297,42.480,18.066,17.578
1642605571.854,3.418,32.715,-25.879,9.766,-1.465
1642605571.858,11.230,36.621,-61.523,22.461,-19.531
1642605571.862,5.371,33.203,-23.438,20.020,-11.230
1642605571.863,-3.418,30.762,48.828,8.789,46.875
1642605571.867,-8.789,32.715,-41.016,-1.953,53.223
1642605571.871,-6.348,30.762,-103.027,2.441,52.246
1642605571.875,-1.465,33.203,16.113,12.695,44.434
1642605571.879,-5.371,35.156,133.789,9.766,20.996
1642605571.883,-5.371,35.156,-206.055,1.465,-8.789
1642605571.887,0.000,34.668,-418.457,3.418,-17.578
1642605571.890,6.348,34.180,-11.230,14.160,31.250
1642605571.894,3.906,33.203,91.309,17.578,62.988
1642605571.898,1.465,33.203,-97.656,10.742,75.195
1642605571.902,14.648,37.598,-62.012,7.324,52.734
1642605571.906,28.320,38.086,108.887,22.461,61.523
1642605571.922,22.461,32.715,23.926,29.785,40.527
1642605571.926,14.160,27.344,-98.145,18.066,-14.648
1642605571.930,22.461,27.832,-40.527,19.043,-8.789
1642605571.934,33.203,32.715,66.406,24.902,18.066
1642605571.938,27.832,32.227,-99.609,24.902,6.836
1642605571.942,18.555,27.832,-383.301,22.461,-2.441
1642605571.946,18.555,27.832,-243.652,15.625,51.270
1642605571.949,25.391,31.738,33.691,19.043,89.844
1642605571.953,31.250,31.738,-52.734,29.785,99.609
1642605571.957,19.043,27.344,-221.191,22.461,82.520
1642605571.961,13.184,27.832,-14.160,17.090,66.895
1642605571.965,25.391,28.320,42.480,25.391,25.391
1642605571.968,26.855,25.391,-9.277,28.809,28.320
1642605571.972,18.066,24.902,31.250,21.484,81.543
1642605571.976,15.137,30.273,56.152,16.113,71.289
1642605571.980,19.043,29.785,45.410,21.484,19.531
1642605571.984,20.020,25.879,-58.594,31.250,19.531
1642605571.988,12.695,23.926,-217.285,31.250,-12.695
1642605571.992,5.371,26.367,-223.633,20.020,0.000
1642605571.995,11.230,29.297,-167.480,20.508,68.848
1642605571.999,21.973,28.320,-349.121,31.250,68.848
1642605572.003,18.066,30.762,-407.715,26.855,55.664
1642605572.007,8.789,36.133,-77.148,16.602,50.781
1642605572.011,10.742,34.180,38.086,14.160,35.645
1642605572.013,16.113,32.227,26.367,20.508,51.758
1642605572.017,19.531,34.668,73.730,29.297,61.523
1642605572.021,17.578,36.621,69.824,23.926,26.367
1642605572.025,15.137,31.250,-20.508,14.160,28.320
1642605572.029,21.973,30.273,-85.449,17.090,28.809
1642605572.033,25.879,31.738,-153.809,29.297,-7.812
1642605572.037,18.555,31.250,-117.188,29.297,44.434
1642605572.040,11.719,30.762,-95.703,17.578,55.664
1642605572.044,17.578,29.297,-292.969,14.160,24.414
1642605572.048,26.367,29.297,-154.297,17.578,29.297
1642605572.052,20.508,30.273,28.809,23.438,34.180
1642605572.056,9.277,27.344,-62.012,17.090,13.672
1642605572.058,12.207,29.785,-123.047,11.719,-32.715
1642605572.062,28.320,35.156,89.844,24.902,3.906
1642605572.066,30.762,38.086,137.695,31.250,26.367
1642605572.070,20.996,35.645,-82.031,27.832,-0.488
1642605572.074,19.043,31.250,-176.758,24.902,-9.766
1642605572.078,25.879,29.297,-77.637,28.320,48.340
1642605572.082,30.273,26.855,-35.156,32.715,82.520
1642605572.085,20.508,26.367,-296.875,24.414,27.344
1642605572.089,17.090,27.832,-328.125,18.555,49.805
1642605572.093,28.320,34.180,73.242,24.902,59.082
1642605572.097,30.762,37.598,78.125,28.809,44.434
1642605572.101,27.344,30.762,-3.906,31.250,48.828
1642605572.103,38.086,26.855,-58.105,39.551,13.184
1642605572.107,38.574,38.086,-21.484,31.250,29.785
1642605572.111,23.926,42.969,51.758,10.254,43.945
1642605572.115,24.902,41.016,-69.824,10.742,11.230
1642605572.119,32.227,41.992,73.242,14.160,34.668
1642605572.123,31.738,38.086,80.078,9.766,25.879
1642605572.127,38.086,40.039,-78.613,17.090,0.977
1642605572.130,38.574,42.480,-221.680,19.531,-2.930
1642605572.134,27.344,40.039,-30.762,10.742,12.695
1642605572.138,22.461,42.480,190.430,13.672,38.086
1642605572.142,34.180,46.875,60.547,25.879,53.223
1642605572.146,38.086,42.969,52.246,32.715,50.781
1642605572.148,21.973,34.668,92.773,22.949,17.090
1642605572.152,12.207,35.156,66.406,17.578,24.414
1642605572.156,19.531,34.668,31.250,22.949,63.477
1642605572.160,23.438,29.297,-16.602,27.344,49.805
1642605572.164,18.555,29.297,43.457,27.832,17.090
1642605572.168,12.695,31.250,-23.438,22.949,-6.348
1642605572.172,13.672,27.832,-323.242,22.461,-33.691
1642605572.175,21.973,30.273,-407.715,28.320,-23.926
1642605572.179,26.855,36.133,8.301,35.645,17.090
1642605572.183,20.508,33.203,89.844,30.273,-5.859
1642605572.187,18.555,30.762,-32.227,22.461,-7.812
1642605572.191,30.762,32.227,41.992,31.250,14.648
1642605572.193,32.227,29.785,150.879,30.762,71.777
1642605572.197,25.391,29.785,81.055,24.902,120.117
1642605572.201,25.391,36.133,-44.922,19.043,95.215
1642605572.205,30.762,34.668,18.555,18.555,59.082
1642605572.209,28.809,31.250,118.164,28.320,75.684
1642605572.213,19.043,31.250,-14.160,24.414,80.566
1642605572.217,15.625,29.785,-493.164,12.695,30.762
1642605572.220,23.438,33.691,-375.488,16.602,40.039
1642605572.224,31.250,35.645,104.004,29.297,54.199
1642605572.228,26.855,31.738,44.922,29.785,43.945
1642605572.232,20.020,34.180,-31.738,20.996,49.805
1642605572.236,24.902,37.109,100.098,19.043,57.129
1642605572.253,20.996,31.738,138.672,23.926,88.867
1642605572.257,11.719,25.879,2.930,22.949,86.914
1642605572.261,8.789,24.902,-51.758,21.484,60.059
1642605572.265,11.230,29.297,-12.207,16.602,57.617
1642605572.269,17.090,31.250,-23.926,20.996,43.945
1642605572.273,19.043,33.203,-132.812,31.250,39.062
1642605572.277,14.648,36.133,-178.223,21.973,36.621
1642605572.280,14.160,34.668,-18.555,16.602,26.855
1642605572.284,29.785,27.832,64.941,20.996,19.531
1642605572.288,36.133,22.461,-254.395,22.949,7.324
1642605572.292,31.250,26.367,-349.121,22.949,31.250
1642605572.296,29.297,33.691,13.184,19.531,63.477
1642605572.298,34.668,36.133,-8.789,24.902,18.066
1642605572.302,37.109,33.691,-81.543,31.738,16.602
1642605572.306,29.297,32.227,2.441,32.715,44.434
1642605572.310,19.531,33.203,97.168,27.832,30.273
1642605572.314,17.090,31.738,31.250,23.438,-0.488
1642605572.318,23.438,28.320,-153.320,33.203,-16.113
1642605572.322,22.949,29.785,-137.207,39.062,43.945
1642605572.325,15.625,33.203,30.273,28.809,91.309
1642605572.329,17.090,35.156,-98.145,23.926,39.062
1642605572.333,20.508,32.715,-398.926,23.438,-14.648
1642605572.337,24.902,32.715,-182.129,28.809,-12.207
1642605572.341,16.602,31.250,41.992,30.273,37.598
1642605572.343,4.883,28.809,-137.207,24.902,46.387
1642605572.347,15.137,30.273,-130.371,28.809,16.602
1642605572.351,23.926,31.250,83.984,35.645,46.875
1642605572.355,12.695,29.785,116.211,32.715,24.414
1642605572.359,5.371,29.297,-70.312,23.926,33.691
1642605572.363,13.672,32.227,-204.102,24.414,51.758
1642605572.367,19.531,31.738,-173.828,28.320,26.367
1642605572.370,14.648,29.785,-13.672,24.414,57.129
1642605572.374,9.277,26.367,-159.180,17.090,60.547
1642605572.378,13.184,24.902,-312.500,12.207,47.852
1642605572.382,21.973,28.809,58.594,21.973,41.504
1642605572.386,22.949,29.297,69.824,30.762,34.180
1642605572.403,18.066,26.367,-48.828,25.391,55.176
1642605572.407,21.484,27.344,65.430,20.508,37.109
1642605572.411,24.414,29.785,52.734,21.484,33.203
1642605572.415,22.461,32.227,-145.508,29.297,10.742
1642605572.419,17.090,31.738,-169.434,24.902,-10.742
1642605572.423,14.160,28.320,-167.969,11.719,-28.320
1642605572.427,18.555,29.785,-125.977,11.719,-43.457
1642605572.430,26.855,30.762,-95.703,21.973,28.809
1642605572.434,23.926,32.227,-221.191,22.949,27.344
1642605572.438,16.113,33.203,-48.828,10.742,-5.859
1642605572.442,19.043,29.785,82.031,11.719,17.090
1642605572.446,31.250,33.691,-86.426,24.902,20.996
1642605572.433,38.086,40.527,-136.719,35.156,0.977
1642605572.437,28.320,38.086,86.426,34.180,21.973
1642605572.441,13.184,32.715,65.430,22.949,14.160
1642605572.445,19.043,29.785,-11.230,23.438,-6.348
1642605572.449,24.902,26.855,16.602,32.227,-2.930
1642605572.453,17.090,27.344,-43.945,27.344,17.578
1642605572.457,17.578,27.832,-154.785,18.555,41.992
1642605572.460,30.273,26.855,-106.445,17.090,57.617
1642605572.464,37.109,31.738,27.344,20.508,77.148
1642605572.468,33.691,32.715,63.477,21.973,88.379
1642605572.472,24.902,28.809,111.328,15.625,67.383
1642605572.476,28.320,29.785,-214.844,17.090,25.879
1642605572.478,43.457,33.203,-412.598,23.926,21.973
1642605572.482,41.992,32.227,36.133,26.855,44.922
1642605572.486,29.297,28.320,84.961,20.020,35.645
1642605572.490,29.785,27.832,-10.254,17.090,19.531
1642605572.494,36.621,29.297,102.051,27.344,20.020
1642605572.498,37.109,33.203,33.203,30.762,20.996
1642605572.502,30.762,33.691,-159.668,27.832,-1.465
1642605572.505,24.902,30.273,-381.348,18.066,-33.691
1642605572.509,30.762,31.250,-237.305,18.066,-4.395
1642605572.513,32.715,32.715,78.125,27.344,72.266
1642605572.517,21.973,33.203,-37.109,19.531,75.684
1642605572.521,14.648,30.762,-116.699,10.742,67.871
1642605572.523,19.043,30.273,59.082,9.766,71.289
1642605572.527,23.926,32.227,86.426,17.578,41.504
1642605572.531,20.996,32.715,24.902,22.461,41.016
1642605572.535,18.555,33.691,-38.574,16.113,46.875
1642605572.539,24.414,36.621,20.508,19.531,17.578
1642605572.543,30.762,36.621,-22.949,27.344,26.855
1642605572.547,25.879,35.645,-219.238,25.879,22.949
1642605572.550,22.949,37.598,-145.508,21.973,-2.441
1642605572.554,27.832,38.574,71.777,25.879,24.902
1642605572.558,34.668,38.574,105.957,30.273,38.574
1642605572.562,33.691,32.715,-191.406,29.297,-28.809
1642605572.566,23.438,29.297,-321.777,24.902,-44.922
1642605572.569,21.973,29.785,19.531,24.414,17.090
1642605572.573,25.879,30.273,85.449,29.297,34.180
1642605572.577,25.879,31.738,-25.879,32.227,34.668
1642605572.581,22.461,32.715,59.082,25.879,35.645
1642605572.585,19.531,35.156,86.914,19.531,24.902
1642605572.589,21.484,37.598,-98.633,26.367,17.578
1642605572.593,28.320,35.645,-365.723,33.203,-2.930
1642605572.596,24.902,36.133,-144.531,29.785,11.230
1642605572.600,14.648,35.156,159.668,19.043,62.500
1642605572.604,16.602,37.109,12.207,14.648,41.504
1642605572.608,20.508,35.645,-33.203,23.926,38.574
1642605572.612,14.160,30.762,104.492,25.879,61.035
1642605572.628,3.418,25.391,111.816,14.160,62.012
1642605572.632,3.906,24.902,-25.391,10.254,54.688
1642605572.636,22.949,33.203,-94.238,30.762,60.059
1642605572.640,38.574,33.203,22.461,49.805,58.105
1642605572.644,19.043,22.461,96.191,34.180,49.805
1642605572.648,-7.324,14.648,-162.109,10.742,68.848
1642605572.652,0.000,16.113,-428.711,13.672,50.293
1642605572.655,17.578,22.461,-113.770,30.273,63.965
1642605572.659,19.043,22.461,33.203,35.645,75.684
1642605572.663,12.207,20.996,-61.035,28.320,54.199
1642605572.667,15.625,22.461,-17.090,28.320,31.250
1642605572.671,22.461,23.926,50.781,33.691,20.020
1642605572.673,20.508,25.391,-7.324,34.668,-23.438
1642605572.677,13.672,24.902,-105.957,30.762,-32.227
1642605572.681,17.578,21.973,-3.418,29.297,51.758
1642605572.685,27.832,22.461,132.324,30.762,77.148
1642605572.689,23.926,22.949,-22.949,32.715,15.137
1642605572.693,15.625,23.438,-258.789,25.879,-16.113
1642605572.697,22.461,28.320,-222.168,22.949,-5.371
1642605572.700,28.320,27.832,-46.875,35.156,26.855
1642605572.704,19.043,24.414,-63.477,35.645,3.418
1642605572.708,7.812,20.996,-380.371,25.879,-51.758
1642605572.712,13.672,23.926,-223.633,27.344,-14.160
1642605572.716,25.879,29.297,-17.090,35.156,23.438
1642605572.718,25.391,29.785,-40.527,43.457,54.688
1642605572.722,13.184,30.762,-0.488,34.668,61.035
1642605572.726,4.395,29.785,10.254,19.531,38.574
1642605572.730,11.230,26.367,-12.695,24.902,1.953
1642605572.734,20.020,23.926,-76.660,36.133,3.906
1642605572.738,14.160,25.391,-167.969,33.203,21.484
1642605572.742,1.465,29.785,-170.898,18.066,13.672
1642605572.745,3.418,29.785,-80.566,16.113,23.926
1642605572.749,16.602,24.414,-264.160,30.762,4.883
1642605572.753,17.578,26.855,-429.688,32.227,-16.113
1642605572.757,13.672,32.227,-30.273,29.297,8.789
1642605572.761,17.578,29.297,33.691,28.809,-22.461
1642605572.764,20.996,28.320,-92.285,28.320,-13.184
1642605572.768,24.902,32.227,59.570,39.062,12.695
1642605572.772,20.508,31.250,124.023,34.180,14.160
1642605572.776,14.648,27.344,36.133,25.879,37.598
1642605572.780,20.508,27.344,18.555,28.320,34.180
1642605572.784,28.320,30.273,-47.363,37.109,1.953
1642605572.788,24.414,32.715,-132.324,35.156,-43.457
1642605572.791,17.090,31.738,-134.277,24.414,-20.020
1642605572.795,18.555,29.297,-322.266,24.414,-22.461
1642605572.799,23.926,30.273,-141.113,27.832,-22.949
1642605572.803,19.043,29.785,36.133,27.832,-10.742
1642605572.807,9.766,28.809,-164.551,25.879,-34.180
1642605572.808,10.254,29.785,-183.594,19.531,-29.785
1642605572.812,18.066,36.133,98.145,25.391,33.203
1642605572.816,20.996,34.180,98.145,29.785,33.691
1642605572.820,14.160,28.320,-65.430,22.461,5.371
1642605572.824,14.160,32.227,0.000,22.949,8.789
1642605572.828,18.555,29.785,-56.641,28.320,-3.418
1642605572.832,15.625,31.250,-73.242,30.273,18.066
1642605572.835,3.906,31.250,-259.277,20.996,3.418
1642605572.839,-1.953,28.320,-492.676,10.254,-16.602
1642605572.843,15.625,33.203,-85.449,17.090,45.410
1642605572.847,21.484,32.715,88.867,30.273,65.918
1642605572.851,12.207,32.227,-22.949,28.809,24.414
1642605572.869,13.184,34.180,-102.051,26.367,-2.441
1642605572.873,22.461,34.668,-45.898,28.809,30.762
1642605572.877,28.809,32.715,21.484,30.762,45.410
1642605572.881,21.973,32.227,-175.293,31.250,18.066
1642605572.885,13.672,31.738,-89.844,20.020,16.113
1642605572.889,11.230,27.344,-30.762,7.812,47.852
1642605572.893,14.160,24.902,-170.410,12.207,27.832
1642605572.896,17.578,29.297,-310.059,20.020,-5.859
1642605572.900,15.137,37.109,-145.996,17.578,10.254
1642605572.904,13.672,36.621,57.617,20.996,30.273
1642605572.908,18.066,30.273,-51.758,27.344,17.090
1642605572.912,21.484,27.832,-23.438,32.715,14.160
1642605572.914,14.648,25.391,151.855,32.715,86.914
1642605572.918,9.766,26.855,93.750,22.461,82.031
1642605572.922,20.020,32.715,29.297,29.785,81.543
1642605572.926,29.785,33.203,10.742,39.551,102.051
1642605572.930,23.438,36.133,-58.105,31.250,40.039
1642605572.934,15.137,37.109,-150.391,20.996,0.977
1642605572.938,17.090,30.762,-196.289,18.555,26.367
1642605572.941,19.531,28.320,-56.641,21.484,64.453
1642605572.945,21.973,30.273,97.168,26.855,93.262
1642605572.949,21.484,31.250,162.109,27.344,79.590
1642605572.953,25.391,32.227,-194.824,24.902,33.203
1642605572.957,35.645,36.621,-388.184,30.273,2.441
1642605572.942,41.992,42.480,37.109,38.086,25.391
1642605572.946,38.086,45.410,42.969,33.203,25.391
1642605572.950,33.691,42.480,-96.680,27.832,18.066
1642605572.954,37.598,37.598,72.266,26.855,42.969
1642605572.958,39.551,34.180,151.855,30.762,66.895
1642605572.962,26.855,32.715,-79.102,23.438,84.473
1642605572.966,14.160,29.785,-267.090,12.207,59.570
1642605572.969,21.973,32.715,-68.848,21.484,52.246
1642605572.973,29.297,38.574,96.680,30.762,42.969
1642605572.977,26.855,38.086,-23.926,25.879,53.223
1642605572.981,17.090,33.691,-359.375,10.254,83.008
1642605572.985,17.578,32.715,-220.703,6.348,97.168
1642605573.003,28.809,38.574,113.281,20.020,71.289
1642605573.007,20.508,38.086,12.207,25.391,62.500
1642605573.011,2.441,33.203,-7.812,20.020,76.660
1642605573.015,2.930,33.203,29.297,14.648,49.805
1642605573.019,16.113,35.156,21.484,21.484,87.402
1642605573.023,21.484,38.086,-63.965,34.668,119.629
1642605573.027,13.184,33.203,-195.312,25.879,89.844
1642605573.030,10.742,32.715,-78.613,20.020,125.000
1642605573.034,21.484,37.109,100.586,26.855,115.723
1642605573.038,24.414,33.203,-195.312,32.715,21.973
1642605573.042,19.043,31.250,-343.262,29.785,-7.324
1642605573.046,14.648,33.203,46.387,20.508,30.762
1642605573.048,17.090,31.738,78.125,23.926,20.508
1642605573.052,21.484,33.203,-14.648,28.320,23.926
1642605573.056,18.066,33.203,75.684,21.973,73.730
1642605573.060,12.207,29.785,142.578,17.578,106.934
1642605573.064,8.789,25.879,4.883,19.043,71.289
1642605573.068,18.555,18.555,-188.477,31.250,37.109
1642605573.072,27.344,20.996,-193.848,42.480,38.574
1642605573.075,17.578,33.691,11.230,27.344,42.969
1642605573.079,9.277,36.621,-29.297,11.230,70.312
1642605573.083,15.137,33.203,-339.844,14.160,47.363
1642605573.087,20.020,36.621,-115.234,21.973,61.035
1642605573.091,13.184,38.086,106.934,17.578,87.891
1642605573.093,7.812,33.691,-162.109,14.160,51.758
1642605573.097,14.160,29.785,-145.020,16.113,36.133
1642605573.101,15.625,29.785,105.469,21.973,32.227
1642605573.105,9.277,30.762,90.820,23.926,39.062
1642605573.109,4.883,31.250,-10.254,13.184,20.996
1642605573.113,10.742,31.738,-140.625,17.090,15.625
1642605573.117,24.414,32.715,-127.930,29.297,38.574
1642605573.120,28.320,30.273,79.102,29.297,50.781
1642605573.124,17.090,27.832,-174.805,20.508,34.180
1642605573.128,12.695,33.203,-356.445,14.160,-1.953
1642605573.132,23.926,36.133,8.789,25.879,8.301
1642605573.136,26.367,35.156,18.066,34.180,42.480
1642605573.138,17.090,38.086,-72.754,26.855,57.129
1642605573.142,17.578,41.504,-9.766,21.484,48.828
1642605573.146,26.367,40.527,22.461,25.879,39.551
1642605573.150,27.344,32.715,-37.109,30.273,67.383
1642605573.154,17.578,26.855,-107.910,19.531,71.289
1642605573.158,13.672,28.809,-144.531,7.812,40.527
1642605573.162,25.391,32.227,-109.863,9.277,52.246
1642605573.165,38.086,34.668,-94.238,14.648,48.340
1642605573.169,32.227,34.668,-412.109,10.742,-27.344
1642605573.173,22.949,34.668,-243.164,-2.441,-16.602
1642605573.177,31.250,33.691,86.426,5.371,20.508
1642605573.181,35.645,32.715,41.992,23.438,13.184
1642605573.183,26.855,33.691,-0.977,26.367,13.184
1642605573.187,20.020,35.156,45.410,24.414,41.016
1642605573.191,20.508,34.668,116.699,25.391,74.219
1642605573.195,23.438,33.203,2.930,28.809,38.574
1642605573.199,21.973,33.203,-22.949,36.133,36.621
1642605573.203,12.207,32.227,-68.359,28.809,41.504
1642605573.207,6.836,34.180,-159.668,22.461,22.949
1642605573.210,14.160,31.738,-370.117,29.297,-45.898
1642605573.214,16.113,30.762,-446.289,31.250,-60.059
1642605573.218,12.695,33.691,-17.578,30.273,17.578
1642605573.222,6.348,32.715,117.188,21.484,38.574
1642605573.226,10.254,35.156,11.230,21.973,31.250
1642605573.229,19.531,35.645,73.242,31.250,-18.555
1642605573.233,15.137,30.273,153.320,32.227,-16.113
1642605573.237,10.254,28.320,43.457,28.320,12.207
1642605573.241,11.230,27.344,-46.875,24.414,36.621
1642605573.245,20.996,29.785,35.156,33.203,67.383
1642605573.249,20.508,33.691,-41.992,34.180,57.617
1642605573.253,7.324,31.738,-164.062,20.996,43.457
1642605573.256,6.836,33.691,-352.051,11.719,19.531
1642605573.260,15.137,33.691,-290.527,12.695,3.906
1642605573.264,17.090,29.785,57.129,20.996,33.691
1642605573.268,9.766,30.762,-11.719,19.043,20.996
1642605573.272,8.301,32.227,-111.328,17.578,-6.836
1642605573.273,18.066,32.227,89.844,21.484,47.363
1642605573.277,26.367,32.715,131.836,24.414,51.758
1642605573.281,21.973,35.156,54.199,27.344,56.152
1642605573.285,15.137,35.156,7.324,26.855,44.922
1642605573.289,20.996,32.227,21.484,30.762,-3.418
1642605573.293,20.508,26.367,-26.367,32.227,42.969
1642605573.297,8.301,20.020,-257.812,22.461,36.133
1642605573.300,4.395,20.020,-344.727,19.043,-39.062
1642605573.304,12.695,25.879,-30.762,18.066,3.906
1642605573.308,19.531,27.832,57.129,18.555,7.812
1642605573.312,18.066,28.320,11.719,20.508,21.484
1642605573.316,8.301,28.320,6.348,13.672,77.148
1642605573.319,19.531,23.926,40.527,20.508,29.297
1642605573.323,39.062,28.320,37.109,34.668,7.324
1642605573.327,24.902,36.133,-90.332,15.625,20.508
1642605573.331,10.742,39.551,4.883,-7.812,38.574
1642605573.335,14.160,38.574,136.719,-8.789,72.266
1642605573.339,26.367,34.668,-38.574,1.465,35.645
1642605573.343,29.785,34.668,-279.785,11.719,5.371
1642605573.346,23.438,38.574,-86.426,8.789,10.742
1642605573.350,26.855,40.039,109.863,3.906,-8.301
1642605573.354,36.621,39.062,25.879,12.207,-16.602
1642605573.358,45.410,40.039,15.625,24.414,-2.441
1642605573.362,45.410,41.016,112.793,29.785,26.367
1642605573.378,40.039,42.969,130.371,27.832,52.246
1642605573.382,42.969,42.480,-30.762,30.273,10.742
1642605573.386,45.410,41.504,-124.512,36.133,-17.578
1642605573.390,42.969,41.504,20.996,39.062,2.441
1642605573.394,37.109,43.457,147.949,32.715,7.812
1642605573.398,27.832,39.551,-167.480,22.461,-0.977
1642605573.402,32.227,33.691,-436.035,20.996,-12.207
1642605573.405,37.109,36.133,-72.754,26.855,19.531
1642605573.409,26.367,36.621,116.699,26.855,31.250
1642605573.413,13.184,32.227,22.949,16.113,41.504
1642605573.417,16.113,30.762,6.348,14.648,3.906
1642605573.421,22.949,32.227,31.738,18.555,-18.555
1642605573.423,17.090,35.645,3.418,17.090,6.348
1642605573.427,13.672,37.598,-19.531,10.254,27.344
1642605573.431,20.020,34.180,31.738,4.395,23.438
1642605573.435,30.273,33.203,52.734,10.254,-4.883
1642605573.439,28.809,36.621,0.977,15.625,-0.488
1642605573.443,18.555,36.133,-151.855,7.812,33.691
1642605573.447,18.555,34.180,-244.629,8.789,12.207
1642605573.450,28.809,33.203,-91.309,18.555,37.109
1642605573.454,30.762,31.738,-23.438,24.414,83.496
1642605573.458,18.066,29.785,-348.633,18.066,7.812
1642605573.462,19.043,29.297,-243.164,13.672,-27.344
1642605573.466,32.227,24.902,95.215,23.438,30.762
1642605573.468,30.762,25.879,70.312,33.203,45.410
1642605573.472,20.020,31.250,55.176,32.715,44.434
1642605573.476,13.184,31.738,153.809,21.484,77.637
1642605573.480,15.625,29.785,121.582,24.902,79.590
1642605573.484,20.996,30.273,29.785,35.156,72.266
1642605573.488,21.484,32.715,-83.984,34.180,53.711
1642605573.492,24.414,34.180,-118.652,29.297,44.922
1642605573.495,28.809,31.738,-32.715,31.738,35.645
1642605573.499,32.715,29.297,-272.949,41.016,19.531
1642605573.503,29.785,32.227,-436.035,42.480,34.668
1642605573.507,20.996,35.645,-39.062,35.645,104.004
1642605573.511,16.113,35.645,86.426,29.785,102.051
1642605573.513,19.043,36.133,-30.762,33.691,47.363
1642605573.517,22.461,35.645,70.312,39.551,56.152
1642605573.521,12.207,32.227,138.184,30.762,51.270
1642605573.525,5.371,29.297,6.836,25.879,47.363
1642605573.529,13.184,33.691,-54.199,32.715,71.777
1642605573.533,17.578,37.109,-85.938,34.180,64.941
1642605573.537,10.254,37.109,-88.867,27.344,66.406
1642605573.540,0.977,38.086,-75.684,12.207,92.773
1642605573.544,5.859,36.133,-352.539,11.719,64.941
1642605573.548,9.766,36.621,-152.832,17.578,33.203
1642605573.552,2.930,40.527,47.852,20.020,62.988
1642605573.556,-0.488,39.062,-173.828,16.113,70.312
1642605573.559,3.906,36.621,-148.438,12.695,57.129
1642605573.563,12.207,35.645,128.906,21.484,76.660
1642605573.567,10.254,32.227,153.320,22.949,63.477
1642605573.571,4.883,26.855,-12.207,16.113,54.199
1642605573.575,9.277,27.344,-26.855,17.578,46.387
1642605573.579,16.113,26.855,-103.027,23.926,8.789
1642605573.583,20.508,26.855,-23.438,34.668,64.941
1642605573.586,17.090,27.832,-165.039,27.344,71.289
1642605573.590,12.207,32.227,-352.539,15.625,18.066
1642605573.594,21.973,34.668,53.223,27.832,36.133
1642605573.598,26.367,31.250,111.816,35.645,37.598
1642605573.602,15.137,30.273,-23.438,30.273,6.348
1642605573.603,9.766,32.715,3.418,18.066,22.949
1642605573.607,14.160,34.668,-9.277,19.043,24.902
1642605573.611,18.555,30.273,-37.598,24.902,29.297
1642605573.615,19.043,31.738,-79.590,21.973,29.785
1642605573.619,15.137,36.133,12.695,15.137,-9.766
1642605573.623,19.043,31.738,-50.293,15.625,4.395
1642605573.627,30.762,34.180,-200.684,25.879,5.859
1642605573.630,46.387,38.574,-425.781,43.945,-34.668
1642605573.634,51.758,31.738,-338.379,51.758,-27.344
1642605573.638,29.785,26.855,74.219,33.203,37.109
1642605573.642,20.508,24.414,28.809,24.414,21.484
1642605573.646,23.926,19.531,-5.371,35.156,23.438
1642605573.648,9.766,17.090,148.438,29.785,63.965
1642605573.652,0.000,13.672,152.832,24.414,65.918
1642605573.656,12.695,11.719,56.152,34.180,54.688
1642605573.660,28.809,15.137,16.602,43.945,46.875
1642605573.664,27.344,20.020,23.438,44.434,29.297
1642605573.668,16.113,18.066,-70.801,27.832,13.184
1642605573.672,19.531,17.090,-340.820,25.879,-28.809
1642605573.675,25.391,19.531,-465.820,29.785,-67.871
1642605573.679,19.531,18.066,-59.082,27.832,6.836
1642605573.683,11.230,20.020,168.945,27.832,74.707
1642605573.687,12.207,24.902,39.062,23.926,40.039
1642605573.691,18.555,24.414,47.363,25.879,20.508
1642605573.693,18.555,27.344,143.066,30.273,75.195
1642605573.697,13.184,27.344,57.129,24.902,52.734
1642605573.701,12.695,26.367,-16.113,18.555,0.488
1642605573.705,21.973,26.855,37.598,20.020,24.414
1642605573.709,23.438,26.367,-13.184,22.461,-26.855
1642605573.713,14.648,28.809,-144.531,20.996,-27.344
1642605573.717,10.742,25.879,-490.723,15.625,16.602
1642605573.720,16.113,22.461,-399.902,19.043,15.137
1642605573.724,20.508,24.414,81.055,33.203,67.383
1642605573.728,17.578,26.367,0.488,36.133,30.762
1642605573.732,13.672,23.926,-99.609,28.809,-22.461
1642605573.736,17.090,26.367,1.465,22.949,-13.184
1642605573.753,21.484,29.785,61.035,31.738,14.648
1642605573.757,21.484,27.344,-19.531,41.992,11.719
1642605573.761,16.602,26.367,-97.168,39.062,7.324
1642605573.765,17.090,27.344,9.277,33.203,42.969
1642605573.769,25.391,26.855,86.426,35.156,33.203
1642605573.773,24.414,28.809,-205.566,40.527,-21.484
1642605573.777,18.066,26.367,-391.602,37.109,-2.441
1642605573.780,19.531,25.391,-80.078,28.809,-17.090
1642605573.784,28.320,24.902,48.828,32.227,-8.789
1642605573.788,35.156,24.414,-99.121,38.574,21.973
1642605573.792,28.320,28.320,-113.770,34.668,30.273
1642605573.796,18.066,29.297,28.320,25.391,32.227
1642605573.798,20.020,27.344,1.465,29.297,30.273
1642605573.802,24.902,29.785,-78.125,30.762,67.383
1642605573.806,20.996,31.250,-5.371,24.902,76.660
1642605573.810,13.184,28.809,53.711,20.996,67.871
1642605573.814,11.719,30.273,-71.777,17.578,44.922
1642605573.818,18.555,28.320,-186.523,23.438,19.531
1642605573.822,18.555,24.902,-154.297,24.414,9.277
1642605573.825,13.184,24.414,-10.254,17.578,23.926
1642605573.829,8.789,24.414,-79.102,10.742,36.621
1642605573.833,14.648,22.949,-347.168,15.625,37.109
1642605573.837,16.602,23.438,-136.719,20.508,41.992
1642605573.841,3.418,24.414,67.383,13.184,21.484
1642605573.843,-1.465,24.902,-168.945,12.207,-4.883
1642605573.847,9.766,28.809,-197.754,18.066,-18.066
1642605573.851,20.020,28.809,48.340,23.926,-22.461
1642605573.855,17.090,27.832,69.336,26.855,-13.672
1642605573.859,17.090,29.297,-70.312,19.043,6.348
1642605573.863,27.344,27.832,-206.055,22.461,7.324
1642605573.867,40.039,27.832,-125.000,35.645,25.879
1642605573.870,41.016,28.320,50.781,36.133,22.461
1642605573.874,28.809,26.367,-205.566,31.738,2.930
1642605573.878,30.273,22.949,-325.195,31.250,6.836
1642605573.882,45.410,21.973,-16.113,43.457,-22.461
1642605573.886,52.246,31.738,48.340,54.199,-29.297
1642605573.887,31.738,41.016,-43.945,30.273,10.254
1642605573.891,23.438,42.480,-85.938,16.602,-2.441
1642605573.895,39.062,42.480,42.480,28.809,-37.598
1642605573.899,38.574,40.527,-30.762,32.715,-8.301
1642605573.903,26.367,39.062,-122.559,25.879,41.016
1642605573.907,17.090,38.086,-114.258,9.277,34.668
1642605573.911,25.391,35.645,-92.773,12.695,27.344
1642605573.914,29.297,35.156,-42.969,23.926,-6.348
1642605573.918,18.555,32.715,-260.742,19.531,-46.875
1642605573.922,11.230,33.203,-145.508,13.672,-53.711
1642605573.926,10.254,37.598,32.227,14.648,-42.480
1642605573.930,16.602,33.691,-81.055,22.461,-31.250
1642605573.933,14.648,27.344,-60.059,22.949,31.738
1642605573.937,10.254,30.762,124.023,20.020,128.418
1642605573.941,12.695,31.738,63.965,18.555,75.195
1642605573.945,16.602,27.344,-84.961,20.020,20.508
1642605573.949,17.578,27.344,-26.855,24.902,49.316
1642605573.953,9.766,26.367,-55.176,15.625,81.543
1642605573.957,9.277,25.879,-194.824,12.207,49.316
1642605573.960,21.973,29.297,-376.465,23.926,0.000
1642605573.964,26.855,29.785,-430.176,27.832,20.020
1642605573.968,25.879,31.250,-83.496,24.414,42.480
1642605573.972,22.949,31.250,3.906,16.602,38.574
1642605573.976,30.273,27.344,-76.172,19.043,34.668
1642605573.977,30.762,27.832,37.109,26.855,33.691
1642605573.981,23.926,27.344,123.535,30.762,60.547
1642605573.985,21.973,25.391,11.719,27.832,65.918
1642605573.989,20.020,31.738,-81.543,22.949,68.848
1642605573.993,24.414,34.180,41.504,29.785,82.520
1642605573.997,25.879,32.715,-27.832,35.645,38.086
1642605574.001,19.043,31.738,-196.289,31.250,14.648
1642605574.004,15.137,32.715,-390.625,21.973,-5.859
1642605574.008,22.461,30.273,-266.113,24.414,2.441
1642605574.012,23.438,29.297,34.668,30.273,25.391
1642605574.016,10.742,32.715,-35.156,23.926,28.320
1642605574.020,5.371,28.320,-144.531,14.648,24.902
1642605574.023,13.672,26.367,56.152,17.578,25.391
1642605574.027,17.090,25.391,173.828,26.367,74.707
1642605574.031,8.301,25.391,50.293,25.879,49.805
1642605574.035,8.301,25.391,-20.020,22.949,32.715
1642605574.039,16.602,25.391,50.293,26.855,47.852
1642605574.043,22.461,28.320,-64.941,31.738,40.039
1642605574.047,20.996,28.809,-322.754,29.785,59.082
1642605574.050,12.695,25.391,-339.355,22.949,27.832
1642605574.054,14.648,26.367,-10.254,20.996,29.297
1642605574.058,25.391,32.715,45.898,30.273,22.949
1642605574.062,26.367,32.227,-16.602,32.227,30.762
1642605574.066,24.414,30.273,-49.805,15.625,47.852
1642605574.068,24.902,33.691,0.977,9.766,24.902
1642605574.072,32.715,34.668,21.973,17.090,23.438
1642605574.076,41.016,33.691,-102.051,23.926,53.711
1642605574.080,36.621,35.156,-26.855,14.648,56.641
1642605574.084,31.250,35.156,70.312,4.395,29.785
1642605574.088,31.738,29.785,-152.832,8.789,21.973
1642605574.092,33.203,27.832,-237.793,11.719,45.410
1642605574.095,29.785,29.297,-7.324,12.207,40.039
1642605574.099,18.555,28.320,142.578,8.301,37.598
1642605574.103,19.531,30.273,-50.293,8.789,40.527
1642605574.107,22.949,31.738,-334.961,20.508,-3.906
1642605574.111,13.184,34.668,-77.148,16.602,16.113
1642605574.129,9.277,31.250,86.914,10.742,53.223
1642605574.133,9.766,28.320,2.441,10.254,62.988
1642605574.137,19.043,31.250,-61.523,20.020,89.355
1642605574.141,24.414,28.809,-9.766,32.227,87.402
1642605574.145,13.184,25.879,85.449,24.414,57.129
1642605574.149,11.230,22.949,-243.164,19.531,5.371
1642605574.153,30.273,25.879,-491.211,31.250,0.488
1642605574.156,41.504,26.855,-121.094,42.969,12.695
1642605574.160,18.555,20.020,95.703,32.715,21.973
1642605574.164,-2.930,20.020,-10.742,12.207,41.992
1642605574.168,1.953,19.531,5.371,14.160,63.965
1642605574.172,17.578,16.602,173.340,30.273,74.219
1642605574.173,14.648,17.578,95.703,28.809,66.406
1642605574.177,4.395,18.555,-74.707,13.672,44.922
1642605574.181,8.301,21.973,-9.277,11.230,52.246
1642605574.185,20.020,21.973,97.168,22.949,62.012
1642605574.189,13.184,19.531,14.160,25.879,50.781
1642605574.193,-1.953,20.508,-161.133,15.137,69.824
1642605574.197,4.395,20.020,-232.422,12.207,64.941
1642605574.200,10.742,18.555,-163.086,16.113,62.988
1642605574.204,4.883,20.508,-137.207,19.043,40.527
1642605574.208,4.395,20.508,-458.008,19.531,12.207
1642605574.212,12.695,24.414,-390.137,14.648,-6.836
1642605574.216,25.391,30.762,-26.367,21.973,-43.945
1642605574.218,27.344,30.273,-10.254,30.273,-24.902
1642605574.222,21.484,31.738,26.855,23.438,27.832
1642605574.226,16.113,31.738,53.223,13.672,7.812
1642605574.230,19.531,25.391,-38.574,18.066,-14.160
1642605574.234,23.926,23.438,-59.570,25.879,23.926
1642605574.238,16.602,26.367,-136.230,21.484,28.809
1642605574.242,8.789,29.785,-144.043,11.230,15.137
1642605574.245,14.160,31.738,-51.758,9.277,41.992
1642605574.249,20.020,32.227,-274.902,19.043,57.617
1642605574.253,14.160,32.227,-420.410,15.137,67.383
1642605574.257,6.836,33.691,-56.641,6.348,112.793
1642605574.261,14.160,31.250,39.062,12.695,93.750
1642605574.263,23.926,27.344,-39.551,20.996,58.594
1642605574.267,26.855,25.391,64.941,23.438,39.551
1642605574.271,21.484,24.902,97.656,18.066,-9.766
1642605574.275,20.020,24.902,4.883,9.277,-20.996
1642605574.279,29.297,29.297,-4.883,15.625,37.598
1642605574.283,35.645,28.320,-16.113,24.902,22.949
1642605574.287,31.738,26.855,-77.637,19.043,21.973
1642605574.290,23.438,24.902,-123.535,10.254,7.324
1642605574.294,27.344,23.926,-327.637,11.230,-30.273
1642605574.298,36.133,31.738,-112.305,17.090,4.395
1642605574.302,28.809,33.691,46.387,17.090,0.977
1642605574.306,19.531,28.809,-172.363,17.578,-6.836
1642605574.307,30.273,33.203,-188.965,18.066,0.488
1642605574.311,38.086,36.621,56.152,20.020,10.742
1642605574.315,35.645,33.691,86.914,21.484,6.836
1642605574.319,30.762,34.668,-69.824,15.625,10.742
1642605574.323,29.297,35.645,-74.707,14.648,13.672
1642605574.327,40.527,35.156,-80.078,22.949,2.441
1642605574.331,39.551,32.715,-129.395,26.367,-7.324
1642605574.334,25.391,31.250,-333.008,14.648,-30.273
1642605574.338,25.879,33.203,-356.934,10.254,13.672
1642605574.342,40.039,37.598,26.367,20.996,45.898
1642605574.346,44.922,36.621,81.543,27.832,36.621
1642605574.350,33.203,33.203,-47.363,25.879,22.949
1642605574.353,22.949,33.203,-1.465,16.113,6.836
1642605574.357,25.879,30.273,36.133,20.508,17.090
1642605574.361,28.809,27.344,-37.598,29.297,34.180
1642605574.365,20.996,29.297,-123.535,28.809,35.645
1642605574.369,15.625,31.250,-51.270,27.344,34.180
1642605574.373,18.555,33.203,-62.988,24.902,5.859
1642605574.377,23.926,36.133,-126.953,28.809,18.555
1642605574.380,24.902,34.180,-305.664,34.668,16.113
1642605574.384,22.949,34.668,-162.598,28.809,2.930
1642605574.388,21.973,39.551,132.812,23.926,22.949
1642605574.392,24.902,38.086,55.664,27.832,22.461
1642605574.396,24.414,35.156,-67.383,29.785,-13.672
1642605574.398,17.090,37.109,-6.836,27.832,-22.949
1642605574.402,18.066,38.086,17.090,20.996,-13.184
1642605574.406,23.926,37.598,-53.711,22.949,-10.742
1642605574.410,23.926,36.133,30.762,26.367,30.273
1642605574.414,17.090,33.691,100.098,22.461,52.246
1642605574.418,5.859,35.156,4.395,16.602,23.926
1642605574.422,6.836,32.715,-259.277,20.020,21.973
1642605574.425,15.625,31.250,-442.871,29.297,18.555
1642605574.429,17.578,35.156,-104.980,30.762,27.832
1642605574.433,11.230,33.691,66.406,25.391,19.531
1642605574.437,11.230,31.738,-32.227,25.391,1.465
1642605574.441,22.461,33.691,42.969,34.180,28.809
1642605574.443,24.414,33.691,147.949,37.598,31.250
1642605574.447,15.137,32.715,98.145,31.738,36.621
1642605574.451,16.602,31.738,-26.855,28.809,37.598
1642605574.455,23.438,27.832,0.977,33.203,-0.488
1642605574.459,20.020,24.902,45.410,37.598,-13.672
1642605574.463,11.719,26.367,-110.352,30.762,9.277
1642605574.467,0.488,24.902,-371.094,18.066,-20.508
1642605574.470,4.883,22.461,-314.453,18.066,-65.430
1642605574.474,16.113,24.902,21.484,27.832,-36.133
1642605574.478,9.766,25.879,2.441,28.320,-7.324
1642605574.482,7.324,28.320,-148.926,22.461,-24.414
1642605574.486,18.066,28.320,22.949,23.926,-27.344
1642605574.502,22.461,26.367,118.164,34.668,-7.324
1642605574.506,20.508,26.367,22.949,35.156,5.859
1642605574.510,10.742,26.367,-23.926,23.926,14.160
1642605574.514,13.672,28.809,38.574,18.066,1.465
1642605574.518,20.508,31.250,45.410,19.043,-23.438
1642605574.522,16.113,27.832,-138.184,18.555,-39.551
1642605574.526,10.254,27.344,-213.379,16.113,28.809
1642605574.529,9.277,31.250,-29.297,8.789,63.477
1642605574.533,15.625,33.691,160.156,10.254,40.039
1642605574.537,19.043,32.715,-176.758,16.113,25.391
1642605574.541,16.113,35.156,-418.945,10.254,-7.812
1642605574.545,16.113,39.551,-0.488,11.719,20.508
1642605574.548,23.926,38.086,104.492,19.531,39.551
1642605574.552,28.320,34.668,2.441,23.438,47.852
1642605574.556,22.461,37.109,4.883,20.996,36.133
1642605574.560,17.578,38.574,25.391,15.137,44.434
1642605574.564,19.531,36.621,-43.457,19.531,48.340
1642605574.568,23.438,31.250,-74.219,30.762,46.875
1642605574.572,22.461,28.809,-37.109,30.762,39.062
1642605574.575,7.324,31.738,49.316,18.066,41.992
1642605574.579,0.488,29.297,7.812,17.090,36.621
1642605574.583,9.766,23.438,-263.672,20.020,-16.602
1642605574.587,14.648,22.461,-78.125,26.367,1.465
1642605574.591,18.555,31.738,209.961,32.715,28.320
1642605574.592,5.859,42.969,110.840,4.395,-0.977
1642605574.596,1.953,55.176,106.934,-10.254,7.324
1642605574.600,16.602,55.664,389.648,5.371,28.809
1642605574.604,-6.348,45.898,535.645,-10.742,32.715
1642605574.608,-16.113,47.852,362.793,-25.391,18.066
1642605574.612,-0.488,58.105,217.773,-17.090,-44.434
1642605574.616,-0.977,66.895,351.562,-9.277,-21.973
1642605574.619,-16.602,67.871,500.488,-20.020,20.508
1642605574.623,-26.855,76.172,277.344,-32.715,-27.344
1642605574.627,-33.691,82.031,200.684,-42.969,-4.395
1642605574.631,-41.504,80.566,573.730,-47.363,23.438
1642605574.635,-54.199,85.449,673.340,-51.270,12.207
1642605574.637,-69.336,90.332,618.652,-66.895,-8.789
1642605574.641,-67.871,94.727,756.836,-69.336,27.832
1642605574.645,-76.660,91.797,890.137,-80.566,13.672
1642605574.649,-88.867,89.844,761.230,-84.473,-31.738
1642605574.653,-91.797,98.633,643.555,-81.543,-31.738
1642605574.657,-99.121,104.980,623.535,-97.168,-41.016
1642605574.661,-99.121,111.328,682.617,-104.004,-48.340
1642605574.664,-84.961,114.746,807.617,-92.285,-17.090
1642605574.668,-96.191,111.328,611.328,-104.980,-9.766
1642605574.672,-114.746,110.352,669.922,-125.000,-22.461
1642605574.676,-104.980,107.910,885.742,-116.699,2.930
1642605574.680,-92.773,102.539,852.539,-104.004,-9.277
1642605574.683,-99.609,102.051,845.703,-107.910,-19.043
1642605574.687,-110.352,105.469,931.641,-119.629,55.664
1642605574.691,-110.352,94.727,879.883,-123.535,32.715
1642605574.695,-99.121,92.285,740.234,-112.305,-12.207
1642605574.699,-91.309,100.098,738.281,-101.562,20.508
1642605574.703,-103.516,96.191,647.949,-116.699,25.391
1642605574.707,-115.234,90.332,544.434,-132.812,65.430
1642605574.710,-110.352,87.891,301.758,-124.512,18.066
1642605574.714,-100.586,83.496,13.672,-110.840,-61.035
1642605574.718,-101.562,80.078,228.516,-113.281,-9.766
1642605574.722,-106.934,75.195,261.719,-118.164,-10.254
1642605574.726,-97.656,64.941,82.031,-105.469,-19.531
1642605574.727,-81.055,62.012,132.324,-83.984,40.527
1642605574.731,-80.566,66.895,104.980,-83.008,27.832
1642605574.735,-89.844,62.988,-161.133,-93.262,-42.480
1642605574.739,-80.078,55.176,-383.789,-86.914,-6.836
1642605574.743,-67.383,51.270,-392.090,-69.824,41.504
1642605574.747,-72.266,46.387,-544.922,-64.453,37.109
1642605574.751,-73.242,37.598,-805.176,-65.430,-4.395
1642605574.754,-53.223,37.109,-947.266,-54.199,-59.082
1642605574.758,-27.832,40.527,-864.746,-35.156,-30.273
1642605574.762,-18.555,37.598,-693.848,-27.344,14.160
1642605574.766,-14.160,33.691,-772.949,-22.949,9.277
1642605574.770,-3.906,30.273,-880.371,-17.090,33.691
1642605574.787,9.766,30.273,-690.918,-10.742,64.453
1642605574.791,19.043,26.855,-616.211,0.488,37.598
1642605574.795,20.996,20.996,-763.184,10.742,11.719
1642605574.799,24.414,19.043,-741.211,11.230,31.738
1642605574.803,34.180,15.625,-625.000,11.230,58.105
1642605574.807,50.293,14.160,-757.324,27.832,29.785
1642605574.811,48.340,15.625,-912.109,33.691,5.371
1642605574.814,41.504,16.602,-921.387,24.414,-20.996
1642605574.818,50.781,18.555,-682.617,34.180,3.906
1642605574.822,55.176,13.672,-533.691,52.246,26.855
1642605574.826,46.387,7.812,-590.332,55.664,8.301
1642605574.830,46.387,7.812,-700.684,52.246,-3.418
1642605574.819,57.617,10.254,-678.223,54.199,-16.602
1642605574.823,66.895,11.230,-564.941,65.430,-15.625
1642605574.827,71.289,9.766,-657.715,76.660,-40.527
1642605574.831,71.777,11.230,-611.328,79.102,-20.020
1642605574.835,72.266,9.766,-512.695,72.754,-15.137
1642605574.839,81.055,6.348,-644.043,76.172,-22.949
1642605574.843,86.914,6.836,-682.129,87.402,-38.086
1642605574.846,81.055,5.371,-449.707,87.891,-14.160
1642605574.850,78.125,3.418,-377.930,79.102,9.277
1642605574.854,89.355,6.348,-552.734,82.031,11.719
1642605574.858,96.680,7.812,-759.766,92.773,29.297
1642605574.862,90.332,5.371,-567.871,88.867,-3.418
1642605574.878,80.078,4.883,-356.934,81.543,22.949
1642605574.882,86.914,5.859,-378.418,79.102,65.430
1642605574.886,97.168,7.812,-402.344,85.449,69.824
1642605574.890,93.750,11.719,-310.059,90.332,86.914
1642605574.894,85.938,11.230,-221.680,81.055,71.289
1642605574.898,81.055,6.836,-495.117,76.172,64.453
1642605574.902,87.402,4.395,-764.648,83.008,38.086
1642605574.905,87.402,7.324,-470.703,87.891,14.160
1642605574.909,75.684,7.324,-267.578,86.914,30.762
1642605574.913,74.707,2.930,-322.266,87.402,63.477
1642605574.917,79.102,2.441,-218.750,95.215,62.500
1642605574.921,80.078,1.953,-109.375,96.680,83.008
1642605574.923,72.266,-1.953,-194.824,91.309,72.754
1642605574.927,63.477,-0.977,-329.102,83.984,-10.742
1642605574.931,67.383,3.418,-286.133,83.984,-35.156
1642605574.935,74.219,4.395,-207.031,96.191,-27.344
1642605574.939,72.266,0.977,-291.992,98.145,-28.320
1642605574.943,69.824,-1.465,-425.293,88.379,-30.273
1642605574.947,76.172,2.930,-498.047,88.867,-70.801
1642605574.950,88.867,4.395,-443.848,99.609,-68.848
1642605574.954,87.402,1.953,-375.000,99.121,-18.555
1642605574.958,74.707,2.930,-669.922,79.102,-12.207
1642605574.962,72.266,10.254,-541.992,69.336,-11.230
1642605574.966,78.125,13.184,-175.293,74.707,-28.320
1642605574.968,78.613,9.277,-231.445,78.613,-19.043
1642605574.972,69.336,5.371,-245.117,73.242,-28.809
1642605574.976,61.035,6.348,-175.781,66.406,-33.691
1642605574.980,68.848,5.371,-122.070,73.242,-1.953
1642605574.984,70.312,5.371,-195.312,79.590,-20.020
1642605574.988,54.199,10.254,-284.668,72.754,4.395
1642605574.992,48.340,8.789,-358.887,57.617,-20.508
1642605574.995,58.105,12.207,-272.461,57.129,-63.477
1642605574.999,65.430,15.625,-354.980,74.707,-39.062
1642605575.003,69.336,14.160,-515.625,79.102,-54.688
1642605575.007,67.871,14.160,-192.383,64.941,-65.918
1642605575.011,65.918,14.160,-110.840,56.641,-52.246
1642605575.013,77.148,14.648,-249.512,63.477,-26.855
1642605575.017,81.543,14.648,-139.648,70.312,-22.461
1642605575.021,66.895,15.625,34.180,63.477,14.160
1642605575.025,57.129,13.184,-24.902,57.617,17.578
1642605575.029,62.500,12.207,-121.582,62.012,-6.348
1642605575.033,62.988,15.625,-178.711,69.824,19.531
1642605575.037,51.270,14.160,-201.172,69.824,37.598
1642605575.040,44.434,12.207,-182.617,62.988,53.223
1642605575.044,46.387,13.672,-451.172,59.082,31.738
1642605575.048,51.758,18.555,-226.074,62.500,70.801
1642605575.052,49.316,21.973,4.395,63.477,70.801
1642605575.056,35.645,19.043,-265.137,56.152,53.223
1642605575.058,38.086,18.555,-229.004,52.246,97.168
1642605575.062,45.410,20.996,-12.207,55.176,68.359
1642605575.066,40.039,22.461,46.387,57.617,62.988
1642605575.070,29.297,24.414,1.465,43.457,89.355
1642605575.074,30.273,23.926,-70.312,39.062,52.734
1642605575.078,40.527,23.926,-109.375,47.363,55.176
1642605575.082,41.016,23.926,-79.102,43.457,43.457
1642605575.085,31.738,22.461,-231.445,38.086,20.996
1642605575.089,27.832,20.020,-386.230,30.762,28.320
1642605575.093,43.945,22.461,-93.750,34.668,6.836
1642605575.097,50.293,24.414,12.695,44.922,20.996
1642605575.101,39.062,21.973,-115.234,43.457,19.043
1642605575.120,29.785,20.996,-63.477,33.691,7.324
1642605575.124,32.227,18.066,-4.883,35.645,45.898
1642605575.128,41.504,17.090,-50.781,51.758,71.777
1642605575.132,36.621,20.020,-86.426,52.246,61.035
1642605575.136,32.715,22.461,-34.180,46.875,52.246
1642605575.140,36.133,21.484,-72.754,44.922,51.270
1642605575.144,41.016,20.996,-236.328,42.969,20.996
1642605575.147,37.598,18.066,-339.355,45.898,16.113
1642605575.151,29.785,12.207,-217.285,44.922,10.254
1642605575.155,38.574,18.066,27.832,48.828,37.109
1642605575.159,41.016,27.344,40.527,38.086,94.238
1642605575.163,38.574,32.715,6.836,29.297,61.523
1642605575.148,39.062,34.668,98.633,31.738,25.879
1642605575.152,31.738,31.250,100.586,26.367,41.016
1642605575.156,35.645,28.320,-38.574,30.273,3.418
1642605575.160,44.922,26.367,-41.992,31.738,12.695
1642605575.164,36.133,21.973,-52.246,25.391,12.207
1642605575.168,29.297,19.531,-161.621,21.484,12.695
1642605575.172,32.715,19.043,-248.047,19.531,24.414
1642605575.175,37.598,19.043,-203.125,28.809,-16.113
1642605575.179,36.621,20.508,-54.199,29.297,-14.160
1642605575.183,26.367,21.973,7.812,18.555,-13.672
1642605575.187,25.879,18.066,-233.398,16.113,-25.879
1642605575.191,27.832,17.090,-396.973,19.043,-17.578
1642605575.193,26.855,20.996,-51.270,18.555,-10.742
1642605575.197,21.973,17.578,35.156,11.719,16.602
1642605575.201,20.996,18.555,-61.035,8.301,34.668
1642605575.205,33.691,24.902,21.484,23.438,20.996
1642605575.209,37.598,27.344,137.207,38.086,38.086
1642605575.213,26.367,29.297,51.270,34.668,55.176
1642605575.217,18.066,30.273,-263.672,24.414,46.387
1642605575.220,23.438,28.809,-241.211,26.367,58.594
1642605575.224,28.809,28.320,75.684,34.180,79.590
1642605575.228,21.973,28.320,43.945,31.738,90.332
1642605575.232,9.277,24.902,-128.418,21.973,92.773
1642605575.236,9.766,26.855,-48.828,16.113,84.961
1642605575.253,23.438,27.344,49.316,25.391,47.363
1642605575.257,22.461,25.391,-20.020,29.297,9.766
1642605575.261,16.113,25.879,-85.938,22.461,8.301
1642605575.265,21.973,23.926,0.488,21.484,44.434
1642605575.269,30.273,27.344,25.879,29.785,37.109
1642605575.273,28.320,28.320,-186.523,34.668,17.578
1642605575.277,23.926,28.809,-276.855,29.297,37.109
1642605575.280,28.320,30.762,-73.242,28.320,10.254
1642605575.284,37.598,34.180,73.730,35.645,-29.297
1642605575.288,44.922,35.156,-143.066,37.598,-15.625
1642605575.292,35.645,34.180,-280.762,29.785,14.648
1642605575.296,30.273,35.645,-10.254,23.926,32.227
1642605575.328,40.039,29.785,85.938,27.832,78.613
1642605575.332,47.852,25.879,-136.230,35.645,40.039
1642605575.336,40.039,29.785,-63.965,30.762,-1.465
1642605575.340,26.855,30.762,112.305,18.555,46.387
1642605575.344,27.832,28.809,-48.340,21.973,31.250
1642605575.348,32.227,30.273,-168.457,33.691,25.879
1642605575.352,30.273,28.320,-165.039,35.645,26.367
1642605575.355,24.902,30.273,-39.551,29.785,7.812
1642605575.359,25.391,31.250,-29.785,30.273,28.320
1642605575.363,30.273,27.832,-290.039,33.691,33.691
1642605575.367,30.273,31.250,-175.781,37.598,23.926
1642605575.371,17.090,31.738,41.504,34.668,36.133
1642605575.332,9.277,29.785,-103.516,28.320,30.762
1642605575.336,20.508,33.203,-153.809,37.109,22.949
1642605575.340,33.691,32.715,17.090,46.387,12.695
1642605575.344,41.016,24.902,99.609,60.547,23.926
1642605575.348,41.992,31.250,-40.527,63.477,45.898
1642605575.352,26.855,40.039,-203.613,34.668,26.367
1642605575.356,30.273,34.180,-102.051,32.715,0.977
1642605575.359,49.805,30.762,89.844,62.012,12.695
1642605575.363,47.363,27.832,162.109,62.500,26.855
1642605575.367,53.223,27.832,315.430,57.617,32.715
1642605575.371,76.660,33.203,528.320,76.172,67.871
1642605575.375,76.660,37.109,517.090,83.008,74.219
1642605575.388,57.617,36.133,262.207,68.848,30.762
1642605575.392,47.852,32.227,170.898,58.594,-34.668
1642605575.396,49.805,31.738,296.387,61.035,-36.621
1642605575.400,49.805,33.691,270.996,64.453,9.766
1642605575.404,36.133,30.273,-141.602,51.758,-27.344
1642605575.408,27.832,31.250,-372.070,37.109,-40.039
1642605575.412,35.156,34.668,5.859,40.527,17.090
1642605575.415,33.691,32.715,139.648,46.387,48.340
1642605575.419,20.508,29.785,45.410,40.039,45.898
1642605575.423,18.555,28.809,157.715,34.180,48.828
1642605575.427,27.344,32.227,261.719,37.598,46.875
1642605575.431,32.715,31.738,75.195,48.340,16.113
1642605575.433,27.832,28.320,-86.426,41.016,15.137
1642605575.437,23.438,28.320,76.172,29.297,13.672
1642605575.441,27.832,28.320,126.953,38.086,4.395
1642605575.445,27.344,31.738,70.312,41.016,33.203
1642605575.449,25.391,30.273,33.691,37.109,28.320
1642605575.453,23.438,25.879,-13.184,27.344,50.781
1642605575.457,25.391,27.832,-103.516,27.344,43.945
1642605575.460,33.203,28.320,-290.527,37.109,7.324
1642605575.464,39.551,24.902,-424.805,41.016,-2.930
1642605575.468,31.250,23.926,-73.242,39.551,5.371
1642605575.472,24.414,26.855,79.102,31.250,20.020
1642605575.476,39.062,24.902,-15.625,36.621,27.832
1642605575.478,44.434,22.461,21.484,51.270,51.270
1642605575.482,39.062,22.949,74.707,50.781,62.500
1642605575.486,34.668,25.879,29.297,42.480,43.945
1642605575.490,39.551,27.832,-40.527,40.527,41.992
1642605575.494,42.480,27.832,32.715,49.316,28.320
1642605575.498,33.203,25.391,4.883,51.758,64.941
1642605575.502,26.855,23.926,-145.020,40.039,111.816
1642605575.505,25.879,28.320,-284.180,32.715,90.820
1642605575.509,32.715,32.227,-152.344,39.062,62.988
1642605575.513,33.691,34.180,70.801,47.363,79.102
1642605575.517,22.461,32.715,-81.055,40.527,67.383
1642605575.521,14.648,29.297,-153.320,36.621,59.082
1642605575.524,20.996,31.738,103.516,46.875,65.918
1642605575.528,31.738,32.715,186.523,52.734,84.961
1642605575.532,21.973,29.297,46.387,45.898,74.707
1642605575.536,10.742,30.273,13.672,38.086,46.875
1642605575.540,19.043,28.320,82.520,40.039,20.508
1642605575.544,25.879,25.391,29.297,49.316,12.207
1642605575.548,12.695,25.391,-227.539,41.016,19.531
1642605575.551,4.395,26.855,-330.566,27.832,-8.789
1642605575.555,12.695,28.320,8.789,29.785,5.371
1642605575.559,22.461,28.809,97.656,38.574,19.531
1642605575.563,18.555,27.832,46.875,43.457,12.695
1642605575.567,8.301,26.367,3.906,30.762,49.316
1642605575.568,11.230,26.855,-16.602,24.414,74.219
1642605575.572,17.578,28.320,28.809,35.156,21.973
1642605575.576,20.508,32.227,-47.852,36.621,36.133
1642605575.580,17.578,35.156,25.391,27.344,43.457
1642605575.584,11.719,33.203,44.922,25.391,-10.742
1642605575.588,18.066,32.715,-143.066,34.180,-21.973
1642605575.592,24.902,35.156,-378.906,34.668,-47.363
1642605575.595,16.113,33.691,-189.941,26.855,-18.555
1642605575.599,9.766,33.691,109.863,19.043,30.762
1642605575.603,22.949,34.668,20.996,22.461,21.973
1642605575.607,34.668,36.133,-15.625,37.598,29.785
1642605575.611,30.762,32.715,75.195,30.273,3.906
1642605575.628,19.043,30.762,112.305,14.160,-5.371
1642605575.632,16.113,31.250,18.066,12.207,22.949
1642605575.636,24.414,29.297,-29.785,18.555,53.711
1642605575.640,23.926,28.809,27.832,20.020,61.035
1642605575.644,17.090,31.250,107.422,14.648,43.945
1642605575.648,18.555,24.414,-177.734,15.625,44.922
1642605575.652,34.180,19.043,-449.707,30.762,37.109
1642605575.655,51.758,27.832,-30.762,45.898,58.594
1642605575.659,35.645,38.574,165.527,31.250,72.266
1642605575.663,18.555,41.016,16.602,5.371,35.156
1642605575.667,34.180,39.551,55.176,10.742,0.977
1642605575.671,32.715,36.621,106.934,19.043,22.461
1642605575.673,20.508,32.227,100.098,15.137,48.340
1642605575.677,18.066,31.250,30.762,11.230,16.113
1642605575.681,26.367,31.250,33.203,16.602,-1.465
1642605575.685,37.109,33.203,92.773,29.785,11.719
1642605575.689,35.645,35.156,62.988,27.832,10.254
1642605575.693,28.809,31.250,-126.953,18.555,-44.434
1642605575.697,31.250,31.250,-190.918,19.043,-58.105
1642605575.700,38.086,30.762,29.785,23.926,25.879
1642605575.704,34.180,29.785,47.852,25.879,44.922
1642605575.708,22.949,29.297,-244.141,14.648,-10.742
1642605575.712,21.484,28.320,-119.141,9.277,4.883
1642605575.716,24.902,28.809,107.422,18.555,-6.836
1642605575.718,20.996,31.250,-66.406,22.949,-28.320
1642605575.722,16.113,33.203,-167.969,18.555,25.391
1642605575.726,19.043,34.668,45.410,13.184,63.477
1642605575.730,24.902,32.227,156.250,15.625,68.848
1642605575.734,23.926,28.320,47.363,18.555,28.809
1642605575.738,14.648,28.320,-86.914,14.648,54.199
1642605575.742,9.277,26.855,-95.215,8.789,107.422
1642605575.745,9.766,30.762,72.754,4.883,86.914
1642605575.749,16.602,29.297,-66.895,11.230,77.148
1642605575.753,16.602,24.902,-339.844,17.090,84.473
1642605575.757,9.277,29.785,-38.086,7.812,67.871
1642605575.761,9.766,25.879,63.965,6.836,43.945
1642605575.763,16.113,23.438,16.602,16.602,30.762
1642605575.767,14.160,26.367,77.637,16.113,43.457
1642605575.771,6.836,28.809,104.492,14.160,49.805
1642605575.775,11.230,31.738,48.828,15.137,40.527
1642605575.779,21.484,31.250,-65.918,20.996,5.859
1642605575.783,19.043,29.297,-121.094,22.949,16.113
1642605575.787,8.789,32.227,-22.949,18.555,56.641
1642605575.790,13.672,30.762,27.344,19.043,20.996
1642605575.794,22.949,27.832,-279.785,18.555,-13.672
1642605575.798,23.926,33.203,-131.348,18.066,49.805
1642605575.802,26.855,37.109,102.051,17.578,59.082
1642605575.806,25.391,33.691,-168.945,15.137,49.316
1642605575.808,28.809,30.762,-199.707,16.602,75.195
1642605575.812,42.480,33.203,77.637,25.879,82.520
1642605575.816,39.062,34.180,119.629,29.297,87.402
1642605575.820,26.855,34.668,-12.695,20.020,94.727
1642605575.824,26.367,36.621,-27.344,20.020,73.242
1642605575.828,33.691,33.203,-73.242,35.645,32.227
1642605575.832,31.738,30.273,-93.262,43.945,16.602
1642605575.835,18.066,29.785,-165.527,33.691,53.711
1642605575.839,16.602,31.738,-311.523,22.949,60.059
1642605575.843,25.391,35.645,-21.973,28.809,36.133
1642605575.847,23.438,34.180,65.430,32.715,30.273
1642605575.851,12.207,34.668,-52.246,22.461,4.395
1642605575.853,1.465,38.086,7.324,16.602,43.457
1642605575.857,5.371,37.598,36.133,24.414,80.078
1642605575.861,11.719,33.203,-68.848,26.855,68.848
1642605575.865,4.395,31.738,-128.418,21.973,93.750
1642605575.869,-0.977,32.227,-43.945,16.113,92.285
1642605575.873,1.953,29.785,-52.246,11.230,39.062
1642605575.877,9.277,26.855,-169.434,15.625,21.973
1642605575.880,11.719,27.832,-371.582,22.949,-3.418
1642605575.884,2.441,26.367,-258.789,15.625,4.395
1642605575.888,6.836,28.320,63.965,15.137,93.262
1642605575.892,23.438,32.715,-14.160,32.227,81.055
1642605575.896,41.504,32.715,-31.738,52.246,61.035
1642605575.898,30.762,30.273,97.656,42.969,65.430
1642605575.902,-5.859,26.855,89.844,2.441,12.207
1642605575.906,-1.953,26.367,-82.520,-1.465,22.461
1642605575.910,7.812,26.367,-125.488,6.836,67.383
1642605575.914,-11.719,24.902,-101.562,-9.277,70.312
1642605575.918,-32.227,23.926,-249.023,-22.461,55.176
1642605575.922,-29.297,25.391,-422.363,-19.531,54.199
1642605575.925,-24.414,25.391,-573.242,-18.555,22.949
1642605575.929,-32.715,29.785,-291.504,-30.762,-6.836
1642605575.933,-33.691,35.156,-38.086,-37.109,11.719
1642605575.937,-25.391,34.180,-125.977,-29.785,-18.555
1642605575.941,-14.648,36.133,-96.191,-22.949,-0.488
1642605575.943,-11.230,36.133,5.371,-16.602,27.832
1642605575.947,-14.160,32.227,-46.387,-23.926,22.949
1642605575.951,-8.301,31.250,-104.492,-27.344,52.246
1642605575.955,5.859,32.227,-28.809,-9.766,37.598
1642605575.959,9.277,35.156,71.289,-0.488,39.551
1642605575.963,1.953,32.715,-102.539,-3.418,34.180
1642605575.967,-2.930,29.785,-507.812,-11.230,-11.230
1642605575.970,5.859,31.738,-437.500,-8.301,7.324
1642605575.974,15.625,32.227,0.488,8.789,71.777
1642605575.978,8.301,26.367,-118.164,8.789,4.883
1642605575.982,6.348,24.902,-290.039,5.371,-7.324
1642605575.986,18.555,27.832,-23.926,11.719,44.434
1642605576.003,30.762,27.344,47.363,22.461,13.672
1642605576.007,27.832,27.344,-68.848,24.902,-3.906
1642605576.011,15.625,25.391,-86.914,13.184,11.230
1642605576.015,19.531,25.879,-2.930,10.254,53.223
1642605576.019,28.809,28.809,40.527,16.113,74.219
1642605576.023,23.438,27.832,-91.309,21.973,53.223
1642605576.027,19.043,29.297,-229.004,19.531,17.090
1642605576.030,20.508,31.738,-73.730,14.160,20.996
1642605576.034,25.391,34.180,111.816,22.949,59.082
1642605576.038,23.438,31.738,-176.270,27.832,37.109
1642605576.042,17.578,29.297,-351.074,23.438,0.977
1642605576.046,12.207,31.738,7.324,17.578,32.227
1642605576.048,9.277,27.344,70.801,18.555,15.137
1642605576.052,11.719,25.879,-69.824,25.391,30.273
1642605576.056,9.277,22.949,-52.734,22.461,50.293
1642605576.060,5.371,23.438,-4.395,18.066,5.371
1642605576.064,10.742,25.391,-54.688,17.578,-0.977
1642605576.068,17.578,22.949,-174.316,20.996,-12.207
1642605576.072,13.184,22.949,-272.461,21.484,-2.441
1642605576.075,8.789,21.973,-172.363,11.230,41.016
1642605576.079,6.348,20.996,-119.141,8.789,42.969
1642605576.083,14.160,20.020,-371.094,17.090,38.086
1642605576.087,20.996,24.902,-240.234,19.531,64.941
1642605576.091,14.160,25.879,-33.203,13.184,50.781
1642605576.108,13.672,26.367,-171.875,8.789,-4.395
1642605576.112,25.391,29.785,-164.062,17.090,10.254
1642605576.116,33.691,28.320,28.809,23.926,65.430
1642605576.120,23.926,24.414,78.125,16.113,50.293
1642605576.124,18.066,22.949,-125.488,10.254,25.391
1642605576.128,25.879,25.879,-256.836,19.043,32.227
1642605576.132,29.297,27.832,-182.129,24.902,8.301
1642605576.135,24.414,29.785,-13.184,21.973,-7.324
1642605576.139,16.113,31.250,-182.617,16.602,12.207
1642605576.143,12.695,32.227,-341.797,10.742,31.250
1642605576.147,19.531,35.645,44.434,18.066,41.504
1642605576.151,20.996,34.668,79.102,24.414,21.973
1642605576.137,9.766,30.762,-12.695,16.602,22.461
1642605576.141,9.277,27.344,17.090,14.648,20.996
1642605576.145,21.973,26.367,68.848,22.949,28.320
1642605576.149,23.926,25.391,-23.438,31.738,28.809
1642605576.153,12.207,26.855,-206.055,29.785,20.020
1642605576.157,10.254,27.832,-142.090,21.973,60.547
1642605576.161,19.531,27.832,-72.266,23.926,63.965
1642605576.164,23.438,30.273,-105.469,35.156,39.551
1642605576.168,20.508,32.715,-68.848,33.691,29.297
1642605576.172,21.484,34.180,53.711,26.855,7.324
1642605576.176,25.879,34.180,149.414,26.367,33.203
1642605576.180,26.367,33.203,-11.230,30.273,42.969
1642605576.199,14.648,31.250,-310.059,24.414,2.441
1642605576.203,8.301,30.273,-87.891,18.066,16.602
1642605576.207,13.672,27.344,121.582,20.508,74.219
1642605576.211,14.648,26.855,44.434,23.438,93.750
1642605576.215,15.625,30.762,26.367,31.250,72.754
1642605576.219,10.254,31.250,-17.578,23.438,77.148
1642605576.223,13.184,28.809,-118.164,19.043,67.383
1642605576.226,47.852,30.762,-263.672,54.688,52.734
1642605576.230,42.480,34.180,-322.754,55.664,44.434
1642605576.234,-4.883,33.203,-56.641,6.348,39.062
1642605576.238,-22.461,29.785,52.246,-13.672,43.945
1642605576.242,-18.555,29.785,-56.641,-13.184,55.176
1642605576.228,-24.902,31.250,-61.523,-13.184,52.246
1642605576.232,-41.992,31.738,17.090,-22.949,50.293
1642605576.236,-47.852,33.203,-45.898,-34.668,23.438
1642605576.240,-46.387,31.250,-110.840,-41.992,37.598
1642605576.244,-41.016,29.785,-24.414,-32.715,66.406
1642605576.248,-41.992,29.297,-71.289,-23.926,40.527
1642605576.252,-48.828,26.367,-242.188,-31.250,24.902
1642605576.255,-43.945,27.832,-205.566,-32.227,8.789
1642605576.259,-29.785,31.738,-2.930,-24.414,42.480
1642605576.263,-23.926,34.668,53.223,-18.066,73.730
1642605576.267,-27.832,29.785,-5.371,-19.043,67.871
1642605576.271,-29.297,23.926,-430.176,-22.461,14.648
1642605576.273,-16.113,27.832,-370.117,-11.230,-3.418
1642605576.277,-5.859,33.203,18.555,-2.930,52.246
1642605576.281,-12.695,32.715,-77.148,-10.254,49.805
1642605576.285,-12.695,32.715,-73.730,-7.324,39.062
1642605576.289,0.488,34.668,60.547,-1.465,60.547
1642605576.293,10.254,35.156,-52.246,6.836,54.688
1642605576.297,8.301,34.180,-381.348,6.836,39.062
1642605576.300,9.766,35.156,-448.730,1.465,20.508
1642605576.304,15.137,34.668,-93.262,8.301,41.992
1642605576.308,17.090,37.109,50.781,18.555,63.965
1642605576.312,13.672,38.574,20.996,22.949,71.289
1642605576.316,1.953,31.250,-48.340,12.695,21.484
1642605576.319,-0.488,28.809,-107.910,5.371,-6.348
1642605576.323,11.719,32.715,-35.645,18.066,-19.043
1642605576.327,13.184,29.297,-100.098,23.926,-14.648
1642605576.331,2.441,28.320,-91.309,17.578,26.367
1642605576.335,0.977,29.297,27.832,16.113,26.855
1642605576.339,13.672,25.391,-109.863,28.320,-1.953
1642605576.343,15.137,21.484,-370.605,37.598,21.973
1642605576.346,8.301,22.949,-185.059,23.926,70.312
1642605576.350,11.719,26.367,20.996,20.020,61.523
1642605576.354,16.113,25.879,-120.605,25.391,25.879
1642605576.358,25.391,26.855,-111.816,34.668,40.039
1642605576.362,21.484,26.367,-25.879,35.156,66.406
1642605576.378,17.578,25.879,3.418,25.391,97.656
1642605576.382,26.855,26.367,-56.152,30.273,83.496
1642605576.386,37.109,25.879,-167.480,42.969,26.367
1642605576.390,34.180,27.832,-86.914,41.016,12.207
1642605576.394,29.785,28.320,59.082,35.156,16.602
1642605576.398,32.227,30.762,-216.797,34.668,12.207
1642605576.402,39.551,30.762,-555.664,34.668,-2.930
1642605576.405,41.504,27.832,-249.023,37.109,-18.066
1642605576.409,31.738,27.832,12.695,35.156,6.348
1642605576.413,30.273,23.926,-28.320,28.809,70.312
1642605576.417,31.250,20.996,27.832,32.227,63.965
1642605576.421,30.273,20.020,111.816,37.109,60.059
1642605576.423,22.949,20.020,14.160,30.273,37.598
1642605576.427,14.160,25.391,-104.980,17.090,10.254
1642605576.431,19.043,23.438,-71.777,16.113,8.301
1642605576.435,22.461,18.066,50.293,24.414,23.438
1642605576.439,14.648,18.555,49.316,20.996,62.988
1642605576.443,11.230,20.020,-104.492,15.137,60.059
1642605576.447,16.602,24.414,-177.734,14.160,55.176
1642605576.450,25.391,25.391,-142.090,20.020,56.152
1642605576.454,23.926,22.461,-68.848,27.344,41.016
1642605576.458,16.113,20.508,-403.809,18.555,12.695
1642605576.462,17.090,20.996,-403.320,10.254,-2.441
1642605576.466,28.320,25.391,44.434,24.414,22.461
1642605576.468,34.668,25.391,2.930,32.227,42.969
1642605576.472,26.855,24.414,-78.125,23.926,62.500
1642605576.476,19.531,24.902,-1.465,16.113,82.031
1642605576.480,23.926,27.344,34.180,20.508,75.195
1642605576.484,30.762,25.391,13.672,31.738,38.086
1642605576.488,19.531,22.461,-83.984,23.438,-0.488
1642605576.492,11.719,21.973,-157.227,13.184,-6.348
1642605576.495,20.996,24.902,0.000,16.113,24.414
1642605576.499,28.809,23.438,-99.121,28.320,32.715
1642605576.503,34.180,18.555,-347.656,41.016,14.648
1642605576.507,22.949,21.973,-73.730,28.320,2.441
1642605576.511,6.348,22.949,45.410,11.230,26.367
1642605576.513,13.672,23.438,-6.836,14.648,40.039
1642605576.517,15.137,25.391,73.242,13.672,40.039
1642605576.521,3.418,24.902,114.258,2.930,49.805
1642605576.525,6.348,24.902,54.688,2.930,30.273
1642605576.529,22.949,27.344,-9.766,16.113,-4.883
1642605576.533,28.809,32.227,-97.656,20.508,-1.465
1642605576.537,17.578,29.785,-32.227,16.113,33.691
1642605576.540,6.836,23.438,-66.406,9.277,31.250
1642605576.544,15.137,24.414,-176.758,12.695,10.742
1642605576.548,21.973,31.250,-12.695,20.020,0.000
1642605576.552,15.137,33.691,31.738,16.113,18.555
1642605576.556,8.301,31.738,-142.090,12.695,30.762
1642605576.558,12.695,33.203,-434.082,14.160,1.953
1642605576.562,18.555,35.645,-152.344,18.066,40.527
1642605576.566,12.695,34.180,166.016,19.531,48.828
1642605576.570,3.418,32.227,30.273,7.812,47.363
1642605576.574,1.465,30.762,25.391,4.395,44.922
1642605576.578,16.113,26.855,-57.617,19.531,11.719
1642605576.582,21.484,30.762,-56.152,20.996,-3.906
1642605576.585,16.113,33.691,-181.641,12.695,-19.043
1642605576.589,28.320,35.156,-360.352,9.277,18.555
1642605576.593,41.016,39.551,13.672,16.113,29.785
1642605576.597,41.992,36.133,127.930,23.438,27.344
1642605576.601,35.645,34.668,11.719,17.578,44.434
1642605576.604,29.297,36.133,34.668,10.742,-10.742
1642605576.608,33.691,37.109,28.320,20.020,-26.367
1642605576.612,32.715,35.156,-68.359,33.203,9.277
1642605576.616,25.879,31.250,-110.352,32.227,-5.371
1642605576.620,19.531,32.715,-1.953,25.391,32.227
1642605576.624,25.391,38.574,-24.414,24.902,51.270
1642605576.628,26.855,36.133,-126.465,29.297,35.645
1642605576.631,14.160,33.203,-288.086,28.809,44.434
1642605576.635,8.789,36.621,-130.371,21.973,38.574
1642605576.639,10.254,36.621,206.055,20.020,84.473
1642605576.643,16.113,36.133,89.355,28.809,68.359
1642605576.647,13.184,36.133,-4.395,29.297,18.555
1642605576.648,-0.977,30.273,97.168,20.508,19.531
1642605576.652,-1.953,25.391,93.750,22.461,11.719
1642605576.656,17.090,25.391,-12.695,41.992,47.363
1642605576.660,20.508,34.668,40.039,42.969,69.824
1642605576.664,0.977,41.992,51.758,16.113,50.781
1642605576.668,2.441,36.621,-87.891,16.602,50.781
1642605576.672,20.996,33.691,-252.930,33.691,49.805
1642605576.675,23.926,34.180,-208.496,36.133,72.266
1642605576.679,17.090,32.227,128.906,27.832,93.750
1642605576.683,13.184,30.273,160.156,22.949,84.961
1642605576.687,18.555,29.297,-89.355,24.414,67.871
1642605576.691,30.762,31.738,-129.395,33.691,37.598
1642605576.693,31.250,38.574,124.512,38.086,53.711
1642605576.697,20.996,36.133,116.211,26.855,55.176
1642605576.701,23.926,32.715,-18.555,19.043,40.527
1642605576.705,35.156,31.250,24.414,25.391,34.668
1642605576.709,33.203,29.785,100.586,30.273,38.574
1642605576.713,20.996,27.832,-32.715,24.902,36.621
1642605576.717,16.602,25.879,-311.035,15.625,35.156
1642605576.720,22.949,26.367,-290.039,13.672,30.273
1642605576.724,23.438,28.320,3.906,23.438,67.383
1642605576.728,13.672,29.297,-11.719,24.902,58.594
1642605576.732,10.742,26.855,-113.281,18.555,16.113
1642605576.736,17.090,28.809,62.500,17.090,11.230
1642605576.753,23.438,27.832,179.199,23.438,44.434
1642605576.757,20.020,22.461,-8.301,26.367,-5.859
1642605576.761,11.230,24.414,-85.449,19.531,-40.527
1642605576.765,11.230,24.902,89.844,20.020,36.133
1642605576.769,15.137,24.902,121.582,27.832,18.066
1642605576.773,20.508,23.438,-144.531,31.250,-4.883
1642605576.777,16.113,25.391,-266.602,26.855,25.391
1642605576.780,20.020,31.738,12.695,21.484,54.199
1642605576.784,34.180,30.762,108.398,27.832,61.523
1642605576.788,35.645,29.785,39.062,30.273,51.758
1642605576.792,34.180,30.762,-31.250,26.855,46.387
1642605576.796,35.156,28.809,53.711,26.855,26.367
1642605576.813,39.551,27.832,116.699,31.250,20.996
1642605576.817,45.898,29.297,-8.789,37.109,19.043
1642605576.821,41.504,35.645,-16.113,32.227,27.832
1642605576.825,33.203,38.086,89.844,19.531,40.039
1642605576.829,38.086,40.527,108.887,19.531,23.926
1642605576.833,41.016,45.410,32.715,24.414,1.465
1642605576.837,25.879,46.387,23.438,14.160,36.621
1642605576.840,4.395,45.410,281.250,-8.301,45.410
1642605576.844,-7.812,43.945,499.512,-19.531,24.414
1642605576.848,-15.137,43.945,356.934,-19.531,26.367
1642605576.852,-13.184,55.176,572.754,-17.090,66.406
1642605576.856,-18.555,56.641,893.555,-22.461,52.734
1642605576.843,-31.250,62.012,799.805,-41.992,8.789
1642605576.847,-28.320,71.777,722.656,-40.527,9.766
1642605576.851,-39.062,73.730,906.738,-38.574,39.062
1642605576.855,-52.734,80.078,-963.867,-47.363,88.379
1642605576.859,-55.176,88.379,869.629,-52.246,80.566
1642605576.863,-56.641,98.145,732.910,-63.965,85.938
1642605576.867,-56.641,100.586,899.902,-60.547,104.492
1642605576.870,-66.895,102.051,-990.234,-57.617,105.957
1642605576.874,-78.613,105.469,935.059,-75.195,84.473
1642605576.878,-73.730,107.422,939.941,-80.566,79.102
1642605576.882,-66.406,113.770,996.582,-74.707,98.633
1642605576.886,-77.148,118.164,-965.332,-80.566,90.820
1642605576.888,-92.285,117.676,666.504,-91.309,39.062
1642605576.892,-85.449,120.605,419.434,-94.727,-15.137
1642605576.896,-73.730,123.047,729.492,-94.238,14.648
1642605576.900,-83.008,118.652,667.969,-97.168,11.719
1642605576.904,-95.215,116.699,481.445,-104.980,4.883
1642605576.908,-91.309,115.234,429.199,-106.934,37.109
1642605576.912,-84.473,110.352,374.512,-101.562,45.410
1642605576.915,-81.543,104.980,312.500,-90.820,41.992
1642605576.919,-86.426,95.703,-84.473,-86.426,13.184
1642605576.923,-91.309,86.914,-98.633,-96.191,42.969
